timestamp,TP9,AF7,AF8,TP10
1732134921.981125,-835.9375,162.109375,-59.5703125,40.0390625
1732134921.981125,243.65234375,-1000.0,-1000.0,-1000.0
1732134921.981125,-1000.0,-62.01171875,13.18359375,-33.203125
1732134921.981125,-645.5078125,-749.0234375,-761.71875,-759.765625
1732134921.981125,-984.375,301.7578125,198.73046875,200.1953125
1732134921.981125,391.6015625,-1000.0,-1000.0,-1000.0
1732134921.981125,-1000.0,-278.80859375,-277.34375,-277.83203125
1732134921.981125,-1000.0,-871.58203125,-812.98828125,-816.89453125
1732134921.981125,275.87890625,820.80078125,475.09765625,524.90234375
1732134921.981125,954.1015625,-806.640625,-1000.0,-1000.0
1732134921.981125,-574.70703125,-556.640625,-484.375,-492.1875
1732134921.981125,-1000.0,954.58984375,-979.00390625,-999.51171875
1732134921.981125,-835.9375,162.109375,-59.5703125,40.0390625
1732134921.981125,243.65234375,-1000.0,-1000.0,-1000.0
1732134921.981125,-1000.0,-62.01171875,13.18359375,-33.203125
1732134921.981125,-645.5078125,-749.0234375,-761.71875,-759.765625
1732134921.981125,-984.375,301.7578125,198.73046875,200.1953125
1732134921.981125,391.6015625,-1000.0,-1000.0,-1000.0
1732134921.981125,-1000.0,-278.80859375,-277.34375,-277.83203125
1732134921.981125,-1000.0,-871.58203125,-812.98828125,-816.89453125
1732134921.981125,275.87890625,820.80078125,475.09765625,524.90234375
1732134921.981125,954.1015625,-806.640625,-1000.0,-1000.0
1732134921.981125,-574.70703125,-556.640625,-484.375,-492.1875
1732134921.981125,-1000.0,954.58984375,-979.00390625,-999.51171875
1732134921.981125,-197.75390625,-864.2578125,961.42578125,-976.07421875
1732134921.981125,-863.28125,-95.21484375,-530.76171875,-400.87890625
1732134921.981125,33.69140625,-1000.0,-1000.0,-1000.0
1732134921.981125,-1000.0,395.01953125,500.48828125,419.43359375
1732134921.981125,-307.12890625,-812.01171875,-847.16796875,-829.58984375
1732134921.981125,-854.00390625,83.49609375,-31.25,70.3125
1732134921.981125,245.1171875,-1000.0,-1000.0,-1000.0
1732134921.981125,-1000.0,-177.734375,-120.1171875,-164.55078125
1732134921.981125,-786.62109375,-777.83203125,-776.85546875,-774.90234375
1732134921.981125,859.375,442.3828125,210.44921875,211.9140625
1732134921.981125,544.921875,-1000.0,-1000.0,-1000.0
1732134921.981125,-983.3984375,-284.66796875,-275.87890625,-275.390625
1732134921.981125,-197.75390625,-864.2578125,961.42578125,-976.07421875
1732134921.981125,-863.28125,-95.21484375,-530.76171875,-400.87890625
1732134921.981125,33.69140625,-1000.0,-1000.0,-1000.0
1732134921.981125,-1000.0,395.01953125,500.48828125,419.43359375
1732134921.981125,-307.12890625,-812.01171875,-847.16796875,-829.58984375
1732134921.981125,-854.00390625,83.49609375,-31.25,70.3125
1732134921.981125,245.1171875,-1000.0,-1000.0,-1000.0
1732134921.981125,-1000.0,-177.734375,-120.1171875,-164.55078125
1732134921.981125,-786.62109375,-777.83203125,-776.85546875,-774.90234375
1732134921.981125,859.375,442.3828125,210.44921875,211.9140625
1732134921.981125,544.921875,-1000.0,-1000.0,-1000.0
1732134921.981125,-983.3984375,-284.66796875,-275.87890625,-275.390625
1732134922.071125,-1000.0,-906.73828125,-826.171875,-831.0546875
1732134922.071125,150.87890625,962.890625,582.51953125,614.74609375
1732134922.071125,-944.3359375,-589.35546875,-1000.0,-1000.0
1732134922.071125,-394.04296875,-667.48046875,-571.77734375,-588.37890625
1732134922.071125,-1000.0,895.5078125,949.21875,929.6875
1732134922.071125,-208.0078125,-838.8671875,-917.96875,-892.08984375
1732134922.071125,-850.5859375,43.45703125,-297.36328125,-189.94140625
1732134922.071125,141.6015625,-1000.0,-1000.0,-1000.0
1732134922.071125,-1000.0,179.6875,312.5,221.19140625
1732134922.071125,-442.3828125,-740.234375,-765.625,-757.32421875
1732134922.071125,-895.5078125,181.640625,180.17578125,184.5703125
1732134922.071125,252.9296875,-1000.0,-1000.0,-1000.0
1732134922.071125,-1000.0,-279.296875,-233.3984375,-273.92578125
1732134922.071125,-908.203125,-817.3828125,-787.59765625,-797.36328125
1732134922.071125,685.05859375,581.0546875,269.53125,326.171875
1732134922.071125,675.78125,-1000.0,-1000.0,-1000.0
1732134922.071125,-908.203125,-352.05078125,-275.390625,-291.50390625
1732134922.071125,-1000.0,-960.44921875,-851.5625,-875.48828125
1732134922.071125,23.4375,-918.45703125,708.984375,794.921875
1732134922.071125,-863.28125,-343.75,-915.52734375,-801.26953125
1732134922.071125,-202.1484375,-849.609375,-729.98046875,-790.0390625
1732134922.071125,-1000.0,719.23828125,835.9375,771.97265625
1732134922.071125,-219.23828125,-797.8515625,-868.65234375,-839.35546875
1732134922.071125,-839.84375,153.80859375,-165.52734375,-54.6875
1732134922.071125,244.140625,-1000.0,-1000.0,-1000.0
1732134922.071125,-1000.0,35.15625,124.51171875,66.40625
1732134922.071125,-556.15234375,-737.3046875,-757.32421875,-753.90625
1732134922.071125,-931.15234375,238.76953125,189.94140625,192.3828125
1732134922.071125,355.46875,-1000.0,-1000.0,-1000.0
1732134922.071125,-1000.0,-278.80859375,-275.390625,-276.85546875
1732134922.071125,-1000.0,-851.07421875,-803.7109375,-806.640625
1732134922.071125,489.2578125,733.88671875,385.25390625,430.17578125
1732134922.071125,821.2890625,-918.45703125,-1000.0,-1000.0
1732134922.071125,-744.62890625,-500.0,-387.20703125,-411.1328125
1732134922.071125,-1000.0,984.375,-916.9921875,-957.03125
1732134922.071125,-135.25390625,-881.8359375,856.4453125,962.890625
1732134922.071125,244.140625,-1000.0,-1000.0,-1000.0
1732134922.071125,-1000.0,35.15625,124.51171875,66.40625
1732134922.071125,-556.15234375,-737.3046875,-757.32421875,-753.90625
1732134922.071125,-931.15234375,238.76953125,189.94140625,192.3828125
1732134922.071125,355.46875,-1000.0,-1000.0,-1000.0
1732134922.071125,-1000.0,-278.80859375,-275.390625,-276.85546875
1732134922.071125,-1000.0,-851.07421875,-803.7109375,-806.640625
1732134922.071125,489.2578125,733.88671875,385.25390625,430.17578125
1732134922.071125,821.2890625,-918.45703125,-1000.0,-1000.0
1732134922.071125,-744.62890625,-500.0,-387.20703125,-411.1328125
1732134922.071125,-1000.0,984.375,-916.9921875,-957.03125
1732134922.071125,-135.25390625,-881.8359375,856.4453125,962.890625
1732134922.206125,-867.67578125,-214.84375,-717.28515625,-548.33984375
1732134922.206125,-81.0546875,-980.46875,-879.8828125,-937.5
1732134922.206125,-1000.0,531.25,673.828125,606.4453125
1732134922.206125,-224.609375,-771.97265625,-821.2890625,-799.31640625
1732134922.206125,-836.42578125,163.0859375,-34.66796875,60.546875
1732134922.206125,243.65234375,-1000.0,-1000.0,-1000.0
1732134922.206125,-1000.0,-84.9609375,20.99609375,-34.66796875
1732134922.206125,-647.94921875,-754.39453125,-758.30078125,-757.8125
1732134922.206125,-986.81640625,351.07421875,196.77734375,199.70703125
1732134922.206125,456.0546875,-1000.0,-1000.0,-1000.0
1732134922.206125,-1000.0,-284.1796875,-278.3203125,-277.34375
1732134922.206125,-1000.0,-876.46484375,-814.453125,-827.1484375
1732134922.206125,-867.67578125,-214.84375,-717.28515625,-548.33984375
1732134922.206125,-81.0546875,-980.46875,-879.8828125,-937.5
1732134922.206125,-1000.0,531.25,673.828125,606.4453125
1732134922.206125,-224.609375,-771.97265625,-821.2890625,-799.31640625
1732134922.206125,-836.42578125,163.0859375,-34.66796875,60.546875
1732134922.206125,243.65234375,-1000.0,-1000.0,-1000.0
1732134922.206125,-1000.0,-84.9609375,20.99609375,-34.66796875
1732134922.206125,-647.94921875,-754.39453125,-758.30078125,-757.8125
1732134922.206125,-986.81640625,351.07421875,196.77734375,199.70703125
1732134922.206125,456.0546875,-1000.0,-1000.0,-1000.0
1732134922.206125,-1000.0,-284.1796875,-278.3203125,-277.34375
1732134922.206125,-1000.0,-876.46484375,-814.453125,-827.1484375
1732134922.206125,-839.84375,152.83203125,-103.02734375,29.78515625
1732134922.206125,244.62890625,-1000.0,-1000.0,-1000.0
1732134922.206125,-1000.0,31.73828125,181.640625,155.76171875
1732134922.206125,-552.734375,-736.328125,-750.0,-740.234375
1732134922.206125,-932.12890625,287.59765625,184.5703125,182.12890625
1732134922.206125,299.31640625,-1000.0,-1000.0,-1000.0
1732134922.206125,-1000.0,-284.66796875,-277.83203125,-279.296875
1732134922.206125,-1000.0,-853.02734375,-801.7578125,-811.5234375
1732134922.206125,485.3515625,757.32421875,424.31640625,520.01953125
1732134922.206125,820.80078125,-891.11328125,-1000.0,-1000.0
1732134922.206125,-741.69921875,-494.62890625,-317.87109375,-368.1640625
1732134922.206125,-1000.0,978.515625,-910.15625,-962.40234375
1732134922.206125,281.25,852.05078125,522.94921875,612.79296875
1732134922.206125,952.1484375,-764.6484375,-1000.0,-1000.0
1732134922.206125,-574.70703125,-554.6875,-433.10546875,-491.2109375
1732134922.206125,-1000.0,957.03125,-988.76953125,989.2578125
1732134922.206125,-197.75390625,-859.86328125,-941.40625,-908.203125
1732134922.206125,-864.2578125,-95.21484375,-381.34765625,-316.89453125
1732134922.206125,35.15625,-1000.0,-944.82421875,-987.79296875
1732134922.206125,-1000.0,421.875,592.7734375,539.55078125
1732134922.206125,-333.49609375,-756.34765625,-784.66796875,-777.34375
1732134922.206125,-862.79296875,166.015625,158.69140625,162.59765625
1732134922.206125,249.0234375,-1000.0,-1000.0,-1000.0
1732134922.206125,-1000.0,-123.046875,-28.3203125,-70.3125
1732134922.206125,281.25,852.05078125,522.94921875,612.79296875
1732134922.206125,952.1484375,-764.6484375,-1000.0,-1000.0
1732134922.206125,-574.70703125,-554.6875,-433.10546875,-491.2109375
1732134922.206125,-1000.0,957.03125,-988.76953125,989.2578125
1732134922.206125,-197.75390625,-859.86328125,-941.40625,-908.203125
1732134922.206125,-864.2578125,-95.21484375,-381.34765625,-316.89453125
1732134922.206125,35.15625,-1000.0,-944.82421875,-987.79296875
1732134922.206125,-1000.0,421.875,592.7734375,539.55078125
1732134922.206125,-333.49609375,-756.34765625,-784.66796875,-777.34375
1732134922.206125,-862.79296875,166.015625,158.69140625,162.59765625
1732134922.206125,249.0234375,-1000.0,-1000.0,-1000.0
1732134922.206125,-1000.0,-123.046875,-28.3203125,-70.3125
1732134922.206125,-785.64453125,-766.6015625,-745.60546875,-750.0
1732134922.206125,859.375,454.1015625,250.0,298.33984375
1732134922.206125,548.828125,-1000.0,-1000.0,-1000.0
1732134922.206125,-979.4921875,-289.55078125,-278.80859375,-284.66796875
1732134922.206125,-1000.0,-904.78515625,-851.07421875,-851.5625
1732134922.206125,139.16015625,963.37890625,733.3984375,749.0234375
1732134922.206125,-946.2890625,-593.26171875,-918.45703125,-901.3671875
1732134922.206125,-393.06640625,-626.46484375,-508.30078125,-507.8125
1732134922.206125,-1000.0,917.48046875,981.4453125,973.14453125
1732134922.206125,-208.0078125,-835.44921875,-884.27734375,-871.09375
1732134922.206125,-850.5859375,17.08984375,-205.078125,-135.25390625
1732134922.206125,141.6015625,-1000.0,-1000.0,-1000.0
1732134922.206125,-785.64453125,-766.6015625,-745.60546875,-750.0
1732134922.206125,859.375,454.1015625,250.0,298.33984375
1732134922.206125,548.828125,-1000.0,-1000.0,-1000.0
1732134922.206125,-979.4921875,-289.55078125,-278.80859375,-284.66796875
1732134922.206125,-1000.0,-904.78515625,-851.07421875,-851.5625
1732134922.206125,139.16015625,963.37890625,733.3984375,749.0234375
1732134922.206125,-946.2890625,-593.26171875,-918.45703125,-901.3671875
1732134922.206125,-393.06640625,-626.46484375,-508.30078125,-507.8125
1732134922.206125,-1000.0,917.48046875,981.4453125,973.14453125
1732134922.206125,-208.0078125,-835.44921875,-884.27734375,-871.09375
1732134922.206125,-850.5859375,17.08984375,-205.078125,-135.25390625
1732134922.206125,141.6015625,-1000.0,-1000.0,-1000.0
1732134922.206125,-785.64453125,-766.6015625,-745.60546875,-750.0
1732134922.206125,859.375,454.1015625,250.0,298.33984375
1732134922.206125,548.828125,-1000.0,-1000.0,-1000.0
1732134922.206125,-979.4921875,-289.55078125,-278.80859375,-284.66796875
1732134922.206125,-1000.0,-904.78515625,-851.07421875,-851.5625
1732134922.206125,139.16015625,963.37890625,733.3984375,749.0234375
1732134922.206125,-946.2890625,-593.26171875,-918.45703125,-901.3671875
1732134922.206125,-393.06640625,-626.46484375,-508.30078125,-507.8125
1732134922.206125,-1000.0,917.48046875,981.4453125,973.14453125
1732134922.206125,-208.0078125,-835.44921875,-884.27734375,-871.09375
1732134922.206125,-850.5859375,17.08984375,-205.078125,-135.25390625
1732134922.206125,141.6015625,-1000.0,-1000.0,-1000.0
1732134922.355125,-1000.0,336.42578125,481.4453125,467.7734375
1732134922.355125,-442.3828125,-745.1171875,-769.53125,-766.11328125
1732134922.355125,-895.5078125,170.41015625,167.96875,169.921875
1732134922.355125,253.41796875,-1000.0,-1000.0,-1000.0
1732134922.355125,-1000.0,-190.91796875,-132.8125,-158.69140625
1732134922.355125,-908.69140625,-787.59765625,-763.671875,-769.53125
1732134922.355125,689.453125,539.0625,365.72265625,405.2734375
1732134922.355125,643.06640625,-1000.0,-1000.0,-1000.0
1732134922.355125,-929.19921875,-290.0390625,-284.66796875,-289.0625
1732134922.355125,-1000.0,-934.08203125,-879.39453125,-881.34765625
1732134922.355125,20.99609375,-941.40625,855.46875,873.53515625
1732134922.355125,-862.79296875,-407.71484375,-754.39453125,-731.93359375
1732134922.355125,-1000.0,336.42578125,481.4453125,467.7734375
1732134922.355125,-442.3828125,-745.1171875,-769.53125,-766.11328125
1732134922.355125,-895.5078125,170.41015625,167.96875,169.921875
1732134922.355125,253.41796875,-1000.0,-1000.0,-1000.0
1732134922.355125,-1000.0,-190.91796875,-132.8125,-158.69140625
1732134922.355125,-908.69140625,-787.59765625,-763.671875,-769.53125
1732134922.355125,689.453125,539.0625,365.72265625,405.2734375
1732134922.355125,643.06640625,-1000.0,-1000.0,-1000.0
1732134922.355125,-929.19921875,-290.0390625,-284.66796875,-289.0625
1732134922.355125,-1000.0,-934.08203125,-879.39453125,-881.34765625
1732134922.355125,20.99609375,-941.40625,855.46875,873.53515625
1732134922.355125,-862.79296875,-407.71484375,-754.39453125,-731.93359375
1732134922.355125,-202.1484375,-721.19140625,-634.765625,-620.1171875
1732134922.355125,-1000.0,854.00390625,916.9921875,923.828125
1732134922.355125,-219.23828125,-817.87109375,-856.93359375,-855.95703125
1732134922.355125,-839.84375,145.5078125,-68.84765625,-21.97265625
1732134922.355125,244.62890625,-1000.0,-1000.0,-1000.0
1732134922.355125,-1000.0,139.6484375,251.46484375,228.515625
1732134922.355125,-549.8046875,-730.95703125,-750.9765625,-747.55859375
1732134922.355125,-932.6171875,179.6875,181.15234375,182.12890625
1732134922.355125,256.34765625,-1000.0,-1000.0,-1000.0
1732134922.355125,-1000.0,-276.3671875,-267.08984375,-279.78515625
1732134922.355125,-1000.0,-833.0078125,-800.78125,-807.12890625
1732134922.355125,481.4453125,654.78515625,454.58984375,515.13671875
1732134922.355125,-202.1484375,-721.19140625,-634.765625,-620.1171875
1732134922.355125,-1000.0,854.00390625,916.9921875,923.828125
1732134922.355125,-219.23828125,-817.87109375,-856.93359375,-855.95703125
1732134922.355125,-839.84375,145.5078125,-68.84765625,-21.97265625
1732134922.355125,244.62890625,-1000.0,-1000.0,-1000.0
1732134922.355125,-1000.0,139.6484375,251.46484375,228.515625
1732134922.355125,-549.8046875,-730.95703125,-750.9765625,-747.55859375
1732134922.355125,-932.6171875,179.6875,181.15234375,182.12890625
1732134922.355125,256.34765625,-1000.0,-1000.0,-1000.0
1732134922.355125,-1000.0,-276.3671875,-267.08984375,-279.78515625
1732134922.355125,-1000.0,-833.0078125,-800.78125,-807.12890625
1732134922.355125,481.4453125,654.78515625,454.58984375,515.13671875
1732134922.355125,244.62890625,-1000.0,-1000.0,-1000.0
1732134922.355125,-1000.0,41.50390625,431.640625,348.6328125
1732134922.355125,-549.8046875,-735.83984375,-765.625,-752.9296875
1732134922.355125,-933.10546875,286.62109375,170.8984375,172.8515625
1732134922.355125,256.34765625,-1000.0,-1000.0,-1000.0
1732134922.355125,-1000.0,-281.73828125,-156.25,-194.3359375
1732134922.355125,-1000.0,-861.328125,-768.06640625,-784.1796875
1732134922.355125,505.37109375,793.45703125,371.58203125,502.44140625
1732134922.355125,723.6328125,-843.26171875,-1000.0,-1000.0
1732134922.355125,-860.83984375,-450.1953125,-284.1796875,-293.45703125
1732134922.355125,-1000.0,999.51171875,-880.37109375,-910.64453125
1732134922.355125,-91.796875,-871.58203125,861.81640625,982.91015625
1732134922.446125,826.66015625,-1000.0,-1000.0,-1000.0
1732134922.446125,-748.53515625,-391.11328125,-317.3828125,-295.8984375
1732134922.446125,-1000.0,-976.5625,-911.62109375,-911.62109375
1732134922.446125,-87.40234375,-896.484375,935.05859375,976.07421875
1732134922.446125,-854.98046875,-271.97265625,-600.09765625,-520.5078125
1732134922.446125,-88.37890625,-860.3515625,-822.265625,-847.16796875
1732134922.446125,-1000.0,696.2890625,750.48828125,729.98046875
1732134922.446125,-226.07421875,-793.45703125,-819.3359375,-811.03515625
1732134922.446125,-836.42578125,158.203125,36.1328125,52.734375
1732134922.446125,243.65234375,-1000.0,-1000.0,-1000.0
1732134922.446125,-1000.0,-14.16015625,55.17578125,52.734375
1732134922.446125,-644.53125,-742.1875,-747.55859375,-746.09375
1732134922.446125,826.66015625,-1000.0,-1000.0,-1000.0
1732134922.446125,-748.53515625,-391.11328125,-317.3828125,-295.8984375
1732134922.446125,-1000.0,-976.5625,-911.62109375,-911.62109375
1732134922.446125,-87.40234375,-896.484375,935.05859375,976.07421875
1732134922.446125,-854.98046875,-271.97265625,-600.09765625,-520.5078125
1732134922.446125,-88.37890625,-860.3515625,-822.265625,-847.16796875
1732134922.446125,-1000.0,696.2890625,750.48828125,729.98046875
1732134922.446125,-226.07421875,-793.45703125,-819.3359375,-811.03515625
1732134922.446125,-836.42578125,158.203125,36.1328125,52.734375
1732134922.446125,243.65234375,-1000.0,-1000.0,-1000.0
1732134922.446125,-1000.0,-14.16015625,55.17578125,52.734375
1732134922.446125,-644.53125,-742.1875,-747.55859375,-746.09375
1732134922.446125,-983.88671875,292.48046875,190.91796875,190.4296875
1732134922.446125,370.60546875,-1000.0,-1000.0,-1000.0
1732134922.446125,-1000.0,-279.296875,-278.80859375,-278.80859375
1732134922.446125,-1000.0,-868.65234375,-814.453125,-824.21875
1732134922.446125,274.4140625,813.4765625,526.3671875,610.3515625
1732134922.446125,954.58984375,-817.87109375,-1000.0,-1000.0
1732134922.446125,-574.70703125,-519.04296875,-426.26953125,-426.7578125
1732134922.446125,-1000.0,971.6796875,-975.09765625,-982.91015625
1732134922.446125,-198.2421875,-861.81640625,-969.23828125,-919.921875
1732134922.446125,-859.86328125,-125.48828125,-422.8515625,-311.5234375
1732134922.446125,29.78515625,-970.703125,-957.03125,-989.74609375
1732134922.446125,-1000.0,519.04296875,576.66015625,539.55078125
1732134922.446125,-983.88671875,292.48046875,190.91796875,190.4296875
1732134922.446125,370.60546875,-1000.0,-1000.0,-1000.0
1732134922.446125,-1000.0,-279.296875,-278.80859375,-278.80859375
1732134922.446125,-1000.0,-868.65234375,-814.453125,-824.21875
1732134922.446125,274.4140625,813.4765625,526.3671875,610.3515625
1732134922.446125,954.58984375,-817.87109375,-1000.0,-1000.0
1732134922.446125,-574.70703125,-519.04296875,-426.26953125,-426.7578125
1732134922.446125,-1000.0,971.6796875,-975.09765625,-982.91015625
1732134922.446125,-198.2421875,-861.81640625,-969.23828125,-919.921875
1732134922.446125,-859.86328125,-125.48828125,-422.8515625,-311.5234375
1732134922.446125,29.78515625,-970.703125,-957.03125,-989.74609375
1732134922.446125,-1000.0,519.04296875,576.66015625,539.55078125
1732134922.446125,-983.88671875,292.48046875,190.91796875,190.4296875
1732134922.446125,370.60546875,-1000.0,-1000.0,-1000.0
1732134922.446125,-1000.0,-279.296875,-278.80859375,-278.80859375
1732134922.446125,-1000.0,-868.65234375,-814.453125,-824.21875
1732134922.446125,274.4140625,813.4765625,526.3671875,610.3515625
1732134922.446125,954.58984375,-817.87109375,-1000.0,-1000.0
1732134922.446125,-574.70703125,-519.04296875,-426.26953125,-426.7578125
1732134922.446125,-1000.0,971.6796875,-975.09765625,-982.91015625
1732134922.446125,-198.2421875,-861.81640625,-969.23828125,-919.921875
1732134922.446125,-859.86328125,-125.48828125,-422.8515625,-311.5234375
1732134922.446125,29.78515625,-970.703125,-957.03125,-989.74609375
1732134922.446125,-1000.0,519.04296875,576.66015625,539.55078125
1732134922.446125,-249.51171875,-768.06640625,-786.62109375,-777.34375
1732134922.446125,-834.47265625,165.52734375,150.390625,162.59765625
1732134922.446125,238.28125,-1000.0,-1000.0,-1000.0
1732134922.446125,-1000.0,-119.62890625,-52.24609375,-65.91796875
1732134922.446125,-748.53515625,-762.20703125,-751.46484375,-751.46484375
1732134922.446125,906.25,400.390625,198.2421875,229.98046875
1732134922.446125,469.7265625,-1000.0,-1000.0,-1000.0
1732134922.446125,-1000.0,-284.1796875,-277.34375,-276.3671875
1732134922.446125,-1000.0,-895.99609375,-828.61328125,-846.19140625
1732134922.446125,180.17578125,921.875,613.76953125,702.63671875
1732134922.446125,944.82421875,-658.203125,-1000.0,-952.1484375
1732134922.446125,-566.89453125,-625.48828125,-523.4375,-517.08984375
1732134922.446125,-249.51171875,-768.06640625,-786.62109375,-777.34375
1732134922.446125,-834.47265625,165.52734375,150.390625,162.59765625
1732134922.446125,238.28125,-1000.0,-1000.0,-1000.0
1732134922.446125,-1000.0,-119.62890625,-52.24609375,-65.91796875
1732134922.446125,-748.53515625,-762.20703125,-751.46484375,-751.46484375
1732134922.446125,906.25,400.390625,198.2421875,229.98046875
1732134922.446125,469.7265625,-1000.0,-1000.0,-1000.0
1732134922.446125,-1000.0,-284.1796875,-277.34375,-276.3671875
1732134922.446125,-1000.0,-895.99609375,-828.61328125,-846.19140625
1732134922.446125,180.17578125,921.875,613.76953125,702.63671875
1732134922.446125,944.82421875,-658.203125,-1000.0,-952.1484375
1732134922.446125,-566.89453125,-625.48828125,-523.4375,-517.08984375
1732134922.596125,-1000.0,917.48046875,973.6328125,972.65625
1732134922.596125,-204.1015625,-840.33203125,-908.69140625,-885.7421875
1732134922.596125,-855.95703125,-2.44140625,-300.78125,-194.3359375
1732134922.596125,100.5859375,-1000.0,-1000.0,-1000.0
1732134922.596125,-1000.0,326.66015625,447.75390625,421.875
1732134922.596125,-341.30859375,-749.0234375,-771.484375,-765.625
1732134922.596125,-857.91015625,175.29296875,169.43359375,172.8515625
1732134922.596125,246.58203125,-1000.0,-1000.0,-1000.0
1732134922.596125,-1000.0,-242.67578125,-130.859375,-172.8515625
1732134922.596125,-799.31640625,-796.875,-764.16015625,-769.53125
1732134922.596125,842.28515625,509.27734375,231.93359375,311.03515625
1732134922.596125,565.4296875,-1000.0,-1000.0,-1000.0
1732134922.596125,-1000.0,917.48046875,973.6328125,972.65625
1732134922.596125,-204.1015625,-840.33203125,-908.69140625,-885.7421875
1732134922.596125,-855.95703125,-2.44140625,-300.78125,-194.3359375
1732134922.596125,100.5859375,-1000.0,-1000.0,-1000.0
1732134922.596125,-1000.0,326.66015625,447.75390625,421.875
1732134922.596125,-341.30859375,-749.0234375,-771.484375,-765.625
1732134922.596125,-857.91015625,175.29296875,169.43359375,172.8515625
1732134922.596125,246.58203125,-1000.0,-1000.0,-1000.0
1732134922.596125,-1000.0,-242.67578125,-130.859375,-172.8515625
1732134922.596125,-799.31640625,-796.875,-764.16015625,-769.53125
1732134922.596125,842.28515625,509.27734375,231.93359375,311.03515625
1732134922.596125,565.4296875,-1000.0,-1000.0,-1000.0
1732134922.596125,-1000.0,917.48046875,973.6328125,972.65625
1732134922.596125,-204.1015625,-840.33203125,-908.69140625,-885.7421875
1732134922.596125,-855.95703125,-2.44140625,-300.78125,-194.3359375
1732134922.596125,100.5859375,-1000.0,-1000.0,-1000.0
1732134922.596125,-1000.0,326.66015625,447.75390625,421.875
1732134922.596125,-341.30859375,-749.0234375,-771.484375,-765.625
1732134922.596125,-857.91015625,175.29296875,169.43359375,172.8515625
1732134922.596125,246.58203125,-1000.0,-1000.0,-1000.0
1732134922.596125,-1000.0,-242.67578125,-130.859375,-172.8515625
1732134922.596125,-799.31640625,-796.875,-764.16015625,-769.53125
1732134922.596125,842.28515625,509.27734375,231.93359375,311.03515625
1732134922.596125,565.4296875,-1000.0,-1000.0,-1000.0
1732134922.596125,-958.0078125,-283.69140625,-276.3671875,-278.3203125
1732134922.596125,-1000.0,-930.17578125,-840.8203125,-867.67578125
1732134922.596125,50.78125,-960.44921875,669.921875,798.33984375
1732134922.596125,-958.984375,-443.84765625,-983.3984375,-833.0078125
1732134922.596125,-383.7890625,-724.609375,-573.2421875,-607.91015625
1732134922.596125,-1000.0,853.02734375,945.80078125,923.828125
1732134922.596125,-206.54296875,-820.3125,-888.18359375,-854.4921875
1732134922.596125,-850.5859375,134.765625,-221.6796875,-88.8671875
1732134922.596125,141.6015625,-1000.0,-1000.0,-1000.0
1732134922.596125,-1000.0,127.9296875,362.3046875,349.12109375
1732134922.596125,-442.3828125,-732.91015625,-761.23046875,-754.39453125
1732134922.596125,-895.5078125,181.15234375,173.33984375,174.8046875
1732134922.596125,-958.0078125,-283.69140625,-276.3671875,-278.3203125
1732134922.596125,-1000.0,-930.17578125,-840.8203125,-867.67578125
1732134922.596125,50.78125,-960.44921875,669.921875,798.33984375
1732134922.596125,-958.984375,-443.84765625,-983.3984375,-833.0078125
1732134922.596125,-383.7890625,-724.609375,-573.2421875,-607.91015625
1732134922.596125,-1000.0,853.02734375,945.80078125,923.828125
1732134922.596125,-206.54296875,-820.3125,-888.18359375,-854.4921875
1732134922.596125,-850.5859375,134.765625,-221.6796875,-88.8671875
1732134922.596125,141.6015625,-1000.0,-1000.0,-1000.0
1732134922.596125,-1000.0,127.9296875,362.3046875,349.12109375
1732134922.596125,-442.3828125,-732.91015625,-761.23046875,-754.39453125
1732134922.596125,-895.5078125,181.15234375,173.33984375,174.8046875
1732134922.596125,252.9296875,-1000.0,-1000.0,-1000.0
1732134922.596125,-1000.0,-279.296875,-175.29296875,-215.8203125
1732134922.596125,-908.203125,-822.265625,-770.5078125,-783.203125
1732134922.596125,685.546875,608.3984375,311.03515625,412.59765625
1732134922.596125,673.33984375,-1000.0,-1000.0,-1000.0
1732134922.596125,-904.78515625,-377.9296875,-279.78515625,-283.203125
1732134922.596125,-1000.0,-973.14453125,-865.234375,-894.53125
1732134922.596125,-7.8125,-904.296875,781.25,909.66796875
1732134922.596125,-869.140625,-296.38671875,-846.19140625,-666.015625
1732134922.596125,-198.2421875,-862.3046875,-671.875,-710.9375
1732134922.596125,-1000.0,697.265625,891.6015625,864.2578125
1732134922.596125,-218.75,-791.50390625,-862.79296875,-834.47265625
1732134922.596125,252.9296875,-1000.0,-1000.0,-1000.0
1732134922.596125,-1000.0,-279.296875,-175.29296875,-215.8203125
1732134922.596125,-908.203125,-822.265625,-770.5078125,-783.203125
1732134922.596125,685.546875,608.3984375,311.03515625,412.59765625
1732134922.596125,673.33984375,-1000.0,-1000.0,-1000.0
1732134922.596125,-904.78515625,-377.9296875,-279.78515625,-283.203125
1732134922.596125,-1000.0,-973.14453125,-865.234375,-894.53125
1732134922.596125,-7.8125,-904.296875,781.25,909.66796875
1732134922.596125,-869.140625,-296.38671875,-846.19140625,-666.015625
1732134922.596125,-198.2421875,-862.3046875,-671.875,-710.9375
1732134922.596125,-1000.0,697.265625,891.6015625,864.2578125
1732134922.596125,-218.75,-791.50390625,-862.79296875,-834.47265625
1732134922.776125,-168.45703125,-869.140625,919.921875,-947.265625
1732134922.776125,-876.46484375,-144.04296875,-630.37109375,-402.83203125
1732134922.776125,-76.171875,-971.6796875,-809.5703125,-861.81640625
1732134922.776125,-1000.0,524.4140625,762.6953125,702.1484375
1732134922.776125,-223.6328125,-768.06640625,-823.73046875,-796.38671875
1732134922.776125,-836.42578125,163.57421875,24.4140625,153.3203125
1732134922.776125,243.65234375,-1000.0,-1000.0,-1000.0
1732134922.776125,-1000.0,-100.5859375,56.640625,38.57421875
1732134922.776125,-647.94921875,-758.30078125,-748.046875,-738.28125
1732134922.776125,-985.83984375,397.94921875,191.40625,187.98828125
1732134922.776125,454.1015625,-1000.0,-1000.0,-1000.0
1732134922.776125,-1000.0,-282.2265625,-278.80859375,-273.4375
1732134922.776125,-1000.0,-901.85546875,-816.89453125,-845.703125
1732134922.776125,253.41796875,941.40625,544.921875,693.359375
1732134922.776125,950.1953125,-628.41796875,-1000.0,-963.8671875
1732134922.776125,-572.265625,-627.44140625,-433.10546875,-495.1171875
1732134922.776125,-1000.0,915.52734375,-982.91015625,980.46875
1732134922.776125,-197.75390625,-838.37890625,-947.75390625,-881.34765625
1732134922.776125,-864.74609375,22.94921875,-383.7890625,-214.84375
1732134922.776125,35.15625,-1000.0,-958.984375,-980.46875
1732134922.776125,-1000.0,303.7109375,576.171875,531.25
1732134922.776125,-333.49609375,-747.0703125,-785.15625,-771.484375
1732134922.776125,-862.79296875,177.24609375,156.25,161.62109375
1732134922.776125,248.53515625,-1000.0,-1000.0,-1000.0
1732134922.776125,-1000.0,-901.85546875,-816.89453125,-845.703125
1732134922.776125,253.41796875,941.40625,544.921875,693.359375
1732134922.776125,950.1953125,-628.41796875,-1000.0,-963.8671875
1732134922.776125,-572.265625,-627.44140625,-433.10546875,-495.1171875
1732134922.776125,-1000.0,915.52734375,-982.91015625,980.46875
1732134922.776125,-197.75390625,-838.37890625,-947.75390625,-881.34765625
1732134922.776125,-864.74609375,22.94921875,-383.7890625,-214.84375
1732134922.776125,35.15625,-1000.0,-958.984375,-980.46875
1732134922.776125,-1000.0,303.7109375,576.171875,531.25
1732134922.776125,-333.49609375,-747.0703125,-785.15625,-771.484375
1732134922.776125,-862.79296875,177.24609375,156.25,161.62109375
1732134922.776125,248.53515625,-1000.0,-1000.0,-1000.0
1732134922.866125,-1000.0,-261.23046875,-64.94140625,-72.75390625
1732134922.866125,-797.8515625,-809.08203125,-751.953125,-752.44140625
1732134922.866125,844.23828125,570.3125,229.98046875,363.76953125
1732134922.866125,564.94140625,-1000.0,-1000.0,-1000.0
1732134922.866125,-958.49609375,-289.55078125,-276.3671875,-284.66796875
1732134922.866125,-1000.0,-939.94140625,-848.14453125,-883.30078125
1732134922.866125,45.8984375,-926.26953125,708.0078125,874.51171875
1732134922.866125,-945.3125,-347.16796875,-944.3359375,-731.4453125
1732134922.866125,-358.88671875,-815.91796875,-552.24609375,-622.55859375
1732134922.866125,-1000.0,757.8125,955.078125,925.78125
1732134922.866125,-215.8203125,-804.6875,-878.41796875,-852.05078125
1732134922.866125,-845.21484375,154.296875,-199.21875,-85.9375
1732134922.866125,-1000.0,-261.23046875,-64.94140625,-72.75390625
1732134922.866125,-797.8515625,-809.08203125,-751.953125,-752.44140625
1732134922.866125,844.23828125,570.3125,229.98046875,363.76953125
1732134922.866125,564.94140625,-1000.0,-1000.0,-1000.0
1732134922.866125,-958.49609375,-289.55078125,-276.3671875,-284.66796875
1732134922.866125,-1000.0,-939.94140625,-848.14453125,-883.30078125
1732134922.866125,45.8984375,-926.26953125,708.0078125,874.51171875
1732134922.866125,-945.3125,-347.16796875,-944.3359375,-731.4453125
1732134922.866125,-358.88671875,-815.91796875,-552.24609375,-622.55859375
1732134922.866125,-1000.0,757.8125,955.078125,925.78125
1732134922.866125,-215.8203125,-804.6875,-878.41796875,-852.05078125
1732134922.866125,-845.21484375,154.296875,-199.21875,-85.9375
1732134922.866125,-1000.0,-261.23046875,-64.94140625,-72.75390625
1732134922.866125,-797.8515625,-809.08203125,-751.953125,-752.44140625
1732134922.866125,844.23828125,570.3125,229.98046875,363.76953125
1732134922.866125,564.94140625,-1000.0,-1000.0,-1000.0
1732134922.866125,-958.49609375,-289.55078125,-276.3671875,-284.66796875
1732134922.866125,-1000.0,-939.94140625,-848.14453125,-883.30078125
1732134922.866125,45.8984375,-926.26953125,708.0078125,874.51171875
1732134922.866125,-945.3125,-347.16796875,-944.3359375,-731.4453125
1732134922.866125,-358.88671875,-815.91796875,-552.24609375,-622.55859375
1732134922.866125,-1000.0,757.8125,955.078125,925.78125
1732134922.866125,-215.8203125,-804.6875,-878.41796875,-852.05078125
1732134922.866125,-845.21484375,154.296875,-199.21875,-85.9375
1732134922.866125,-855.95703125,-137.6953125,-746.58203125,-549.31640625
1732134922.866125,-87.890625,-932.12890625,-633.30078125,-721.6796875
1732134922.866125,-1000.0,573.2421875,917.96875,860.3515625
1732134922.866125,-225.5859375,-772.4609375,-856.93359375,-828.125
1732134922.866125,-836.42578125,160.64453125,-56.15234375,67.3828125
1732134922.866125,243.1640625,-1000.0,-1000.0,-1000.0
1732134922.866125,-1000.0,-66.40625,236.328125,150.87890625
1732134922.866125,-644.04296875,-751.953125,-749.0234375,-737.3046875
1732134922.866125,-983.3984375,394.04296875,181.15234375,181.640625
1732134922.866125,359.86328125,-1000.0,-1000.0,-1000.0
1732134922.866125,-1000.0,-285.15625,-261.23046875,-279.296875
1732134922.866125,-1000.0,-894.04296875,-800.78125,-822.75390625
1732134922.866125,-855.95703125,-137.6953125,-746.58203125,-549.31640625
1732134922.866125,-87.890625,-932.12890625,-633.30078125,-721.6796875
1732134922.866125,-1000.0,573.2421875,917.96875,860.3515625
1732134922.866125,-225.5859375,-772.4609375,-856.93359375,-828.125
1732134922.866125,-836.42578125,160.64453125,-56.15234375,67.3828125
1732134922.866125,243.1640625,-1000.0,-1000.0,-1000.0
1732134922.866125,-1000.0,-66.40625,236.328125,150.87890625
1732134922.866125,-644.04296875,-751.953125,-749.0234375,-737.3046875
1732134922.866125,-983.3984375,394.04296875,181.15234375,181.640625
1732134922.866125,359.86328125,-1000.0,-1000.0,-1000.0
1732134922.866125,-1000.0,-285.15625,-261.23046875,-279.296875
1732134922.866125,-1000.0,-894.04296875,-800.78125,-822.75390625
1732134923.016125,284.1796875,920.41015625,496.09375,608.88671875
1732134923.016125,915.52734375,-662.109375,-1000.0,-1000.0
1732134923.016125,-625.9765625,-591.796875,-295.8984375,-394.04296875
1732134923.016125,-1000.0,934.08203125,-892.578125,-950.1953125
1732134923.016125,-198.73046875,-844.7265625,922.36328125,-971.6796875
1732134923.016125,-862.79296875,-2.9296875,-630.859375,-430.6640625
1732134923.016125,31.73828125,-1000.0,-754.39453125,-854.4921875
1732134923.016125,-1000.0,354.00390625,816.40625,701.171875
1732134923.016125,-279.296875,-749.51171875,-828.125,-797.8515625
1732134923.016125,-844.7265625,172.36328125,61.5234375,155.2734375
1732134923.016125,240.234375,-1000.0,-1000.0,-1000.0
1732134923.016125,-1000.0,-208.984375,79.1015625,14.16015625
1732134923.016125,-785.64453125,-789.0625,-743.1640625,-738.76953125
1732134923.016125,864.74609375,512.20703125,187.98828125,289.55078125
1732134923.016125,477.5390625,-1000.0,-1000.0,-1000.0
1732134923.016125,-1000.0,-288.57421875,-278.80859375,-285.64453125
1732134923.016125,-1000.0,-924.31640625,-818.359375,-851.5625
1732134923.016125,145.5078125,-975.09765625,562.98828125,749.51171875
1732134923.016125,-942.87109375,-466.30859375,-1000.0,-899.90234375
1732134923.016125,-394.53125,-740.234375,-420.8984375,-512.6953125
1732134923.016125,-1000.0,837.890625,-975.5859375,980.95703125
1732134923.016125,-208.0078125,-821.77734375,-949.21875,-880.859375
1732134923.016125,-849.609375,128.41796875,-383.30078125,-213.8671875
1732134923.016125,141.11328125,-1000.0,-951.66015625,-984.86328125
1732134923.016125,-785.64453125,-789.0625,-743.1640625,-738.76953125
1732134923.016125,864.74609375,512.20703125,187.98828125,289.55078125
1732134923.016125,477.5390625,-1000.0,-1000.0,-1000.0
1732134923.016125,-1000.0,-288.57421875,-278.80859375,-285.64453125
1732134923.016125,-1000.0,-924.31640625,-818.359375,-851.5625
1732134923.016125,145.5078125,-975.09765625,562.98828125,749.51171875
1732134923.016125,-942.87109375,-466.30859375,-1000.0,-899.90234375
1732134923.016125,-394.53125,-740.234375,-420.8984375,-512.6953125
1732134923.016125,-1000.0,837.890625,-975.5859375,980.95703125
1732134923.016125,-208.0078125,-821.77734375,-949.21875,-880.859375
1732134923.016125,-849.609375,128.41796875,-383.30078125,-213.8671875
1732134923.016125,141.11328125,-1000.0,-951.66015625,-984.86328125
1732134923.016125,-1000.0,-963.8671875,-815.91796875,-855.95703125
1732134923.016125,153.3203125,-915.0390625,525.87890625,751.46484375
1732134923.016125,-945.3125,-340.8203125,-1000.0,-894.53125
1732134923.016125,-394.53125,-844.23828125,-467.7734375,-581.54296875
1732134923.016125,-1000.0,723.6328125,-989.74609375,947.75390625
1732134923.016125,-208.0078125,-798.33984375,-970.703125,-879.39453125
1732134923.016125,-850.5859375,154.296875,-430.6640625,-186.5234375
1732134923.016125,141.6015625,-1000.0,-982.421875,-1000.0
1732134923.016125,-1000.0,28.80859375,545.41015625,359.375
1732134923.016125,-442.3828125,-737.3046875,-786.1328125,-758.7890625
1732134923.016125,-895.5078125,274.90234375,135.25390625,172.8515625
1732134923.016125,253.41796875,-1000.0,-1000.0,-1000.0
1732134923.016125,-1000.0,86.9140625,588.8671875,525.390625
1732134923.016125,-425.78125,-736.81640625,-788.0859375,-775.87890625
1732134923.016125,-888.18359375,185.05859375,140.13671875,170.8984375
1732134923.016125,250.48828125,-1000.0,-1000.0,-1000.0
1732134923.016125,-1000.0,-278.80859375,-60.546875,-156.73828125
1732134923.016125,-909.1796875,-824.21875,-753.90625,-769.04296875
1732134923.016125,690.91796875,610.3515625,199.21875,393.5546875
1732134923.016125,631.34765625,-1000.0,-1000.0,-1000.0
1732134923.016125,-936.5234375,-423.828125,-276.3671875,-286.62109375
1732134923.016125,-1000.0,-984.375,-834.47265625,-882.8125
1732134923.016125,20.01953125,-914.55078125,632.8125,874.0234375
1732134923.016125,-862.3046875,-307.6171875,-1000.0,-728.02734375
1732134923.016125,-1000.0,86.9140625,588.8671875,525.390625
1732134923.016125,-425.78125,-736.81640625,-788.0859375,-775.87890625
1732134923.016125,-888.18359375,185.05859375,140.13671875,170.8984375
1732134923.016125,250.48828125,-1000.0,-1000.0,-1000.0
1732134923.016125,-1000.0,-278.80859375,-60.546875,-156.73828125
1732134923.016125,-909.1796875,-824.21875,-753.90625,-769.04296875
1732134923.016125,690.91796875,610.3515625,199.21875,393.5546875
1732134923.016125,631.34765625,-1000.0,-1000.0,-1000.0
1732134923.016125,-936.5234375,-423.828125,-276.3671875,-286.62109375
1732134923.016125,-1000.0,-984.375,-834.47265625,-882.8125
1732134923.016125,20.01953125,-914.55078125,632.8125,874.0234375
1732134923.016125,-862.3046875,-307.6171875,-1000.0,-728.02734375
1732134923.166125,-202.1484375,-961.42578125,-573.73046875,-649.90234375
1732134923.166125,-1000.0,574.70703125,947.265625,912.109375
1732134923.166125,-219.7265625,-784.66796875,-899.4140625,-860.83984375
1732134923.166125,-839.84375,167.48046875,-260.7421875,-53.7109375
1732134923.166125,244.62890625,-1000.0,-1000.0,-1000.0
1732134923.166125,-1000.0,-109.86328125,352.5390625,166.9921875
1732134923.166125,-549.8046875,-757.8125,-765.13671875,-746.58203125
1732134923.166125,-933.10546875,291.50390625,177.734375,184.08203125
1732134923.166125,255.859375,-1000.0,-1000.0,-1000.0
1732134923.166125,-1000.0,-281.73828125,-220.703125,-278.80859375
1732134923.166125,-1000.0,-855.46875,-783.203125,-805.17578125
1732134923.166125,481.4453125,751.46484375,292.48046875,482.421875
1732134923.166125,827.1484375,-894.04296875,-1000.0,-1000.0
1732134923.166125,-748.53515625,-598.14453125,-276.85546875,-302.24609375
1732134923.166125,-1000.0,935.05859375,-859.375,-918.9453125
1732134923.166125,-87.40234375,-875.9765625,751.46484375,979.4921875
1732134923.166125,-854.98046875,-128.90625,-882.32421875,-524.90234375
1732134923.166125,-87.890625,-1000.0,-692.3828125,-833.49609375
1732134923.166125,-1000.0,252.9296875,881.34765625,744.140625
1732134923.166125,-226.07421875,-755.37109375,-869.62890625,-814.453125
1732134923.166125,-835.9375,183.10546875,-136.71875,53.22265625
1732134923.166125,243.65234375,-1000.0,-1000.0,-1000.0
1732134923.166125,-1000.0,-276.3671875,138.671875,52.734375
1732134923.166125,-646.484375,-808.10546875,-754.39453125,-746.09375
1732134923.241125,-985.3515625,404.296875,188.4765625,190.91796875
1732134923.241125,421.875,-1000.0,-1000.0,-1000.0
1732134923.241125,-1000.0,-473.14453125,-276.3671875,-278.80859375
1732134923.241125,-1000.0,-942.3828125,-804.19921875,-823.73046875
1732134923.241125,278.80859375,834.9609375,402.34375,597.65625
1732134923.241125,953.125,-681.15234375,-1000.0,-1000.0
1732134923.241125,-574.70703125,-1000.0,-381.34765625,-439.453125
1732134923.241125,-1000.0,380.859375,-916.50390625,-991.2109375
1732134923.241125,-197.75390625,-805.6640625,872.0703125,-916.50390625
1732134923.241125,-864.2578125,-35.64453125,-698.73046875,-313.4765625
1732134923.241125,35.15625,-1000.0,-870.1171875,-986.328125
1732134923.241125,-1000.0,-239.2578125,689.453125,542.96875
1732134923.241125,-985.3515625,404.296875,188.4765625,190.91796875
1732134923.241125,421.875,-1000.0,-1000.0,-1000.0
1732134923.241125,-1000.0,-473.14453125,-276.3671875,-278.80859375
1732134923.241125,-1000.0,-942.3828125,-804.19921875,-823.73046875
1732134923.241125,278.80859375,834.9609375,402.34375,597.65625
1732134923.241125,953.125,-681.15234375,-1000.0,-1000.0
1732134923.241125,-574.70703125,-1000.0,-381.34765625,-439.453125
1732134923.241125,-1000.0,380.859375,-916.50390625,-991.2109375
1732134923.241125,-197.75390625,-805.6640625,872.0703125,-916.50390625
1732134923.241125,-864.2578125,-35.64453125,-698.73046875,-313.4765625
1732134923.241125,35.15625,-1000.0,-870.1171875,-986.328125
1732134923.241125,-1000.0,-239.2578125,689.453125,542.96875
1732134923.241125,-333.49609375,-814.453125,-822.75390625,-777.83203125
1732134923.241125,-862.79296875,230.95703125,-23.4375,162.59765625
1732134923.241125,249.51171875,-1000.0,-1000.0,-1000.0
1732134923.241125,-1000.0,-271.484375,9.27734375,-67.87109375
1732134923.241125,-786.1328125,-815.4296875,-759.27734375,-750.9765625
1732134923.241125,857.421875,441.40625,197.75390625,257.8125
1732134923.241125,570.3125,-1000.0,-1000.0,-1000.0
1732134923.241125,-970.21484375,-774.90234375,-277.83203125,-277.83203125
1732134923.241125,-1000.0,795.8984375,-815.4296875,-856.4453125
1732134923.241125,153.3203125,994.140625,511.71875,751.46484375
1732134923.241125,-945.3125,-485.83984375,-1000.0,-895.99609375
1732134923.241125,-394.53125,-1000.0,-484.375,-566.40625
1732134923.241125,-333.49609375,-814.453125,-822.75390625,-777.83203125
1732134923.241125,-862.79296875,230.95703125,-23.4375,162.59765625
1732134923.241125,249.51171875,-1000.0,-1000.0,-1000.0
1732134923.241125,-1000.0,-271.484375,9.27734375,-67.87109375
1732134923.241125,-786.1328125,-815.4296875,-759.27734375,-750.9765625
1732134923.241125,857.421875,441.40625,197.75390625,257.8125
1732134923.241125,570.3125,-1000.0,-1000.0,-1000.0
1732134923.241125,-970.21484375,-774.90234375,-277.83203125,-277.83203125
1732134923.241125,-1000.0,795.8984375,-815.4296875,-856.4453125
1732134923.241125,153.3203125,994.140625,511.71875,751.46484375
1732134923.241125,-945.3125,-485.83984375,-1000.0,-895.99609375
1732134923.241125,-394.53125,-1000.0,-484.375,-566.40625
1732134923.241125,-1000.0,109.86328125,-984.375,955.56640625
1732134923.241125,-208.0078125,-780.2734375,994.62890625,-882.8125
1732134923.241125,-850.5859375,92.7734375,-492.67578125,-185.05859375
1732134923.241125,141.6015625,-1000.0,-998.046875,-1000.0
1732134923.241125,-1000.0,-252.44140625,518.5546875,359.375
1732134923.241125,-442.3828125,-806.15234375,-786.62109375,-758.7890625
1732134923.241125,-895.01953125,228.515625,117.1875,172.8515625
1732134923.241125,253.41796875,-1000.0,-1000.0,-1000.0
1732134923.241125,-1000.0,-272.94921875,-93.26171875,-175.78125
1732134923.241125,-908.203125,-832.51953125,-762.6953125,-772.4609375
1732134923.241125,685.546875,612.3046875,204.58984375,387.6953125
1732134923.241125,675.29296875,-1000.0,-1000.0,-1000.0
1732134923.241125,-1000.0,109.86328125,-984.375,955.56640625
1732134923.241125,-208.0078125,-780.2734375,994.62890625,-882.8125
1732134923.241125,-850.5859375,92.7734375,-492.67578125,-185.05859375
1732134923.241125,141.6015625,-1000.0,-998.046875,-1000.0
1732134923.241125,-1000.0,-252.44140625,518.5546875,359.375
1732134923.241125,-442.3828125,-806.15234375,-786.62109375,-758.7890625
1732134923.241125,-895.01953125,228.515625,117.1875,172.8515625
1732134923.241125,253.41796875,-1000.0,-1000.0,-1000.0
1732134923.241125,-1000.0,-272.94921875,-93.26171875,-175.78125
1732134923.241125,-908.203125,-832.51953125,-762.6953125,-772.4609375
1732134923.241125,685.546875,612.3046875,204.58984375,387.6953125
1732134923.241125,675.29296875,-1000.0,-1000.0,-1000.0
1732134923.241125,-908.203125,-707.51953125,-275.87890625,-285.15625
1732134923.241125,-1000.0,850.09765625,-833.49609375,-883.7890625
1732134923.241125,23.4375,-887.20703125,628.41796875,874.0234375
1732134923.241125,-863.28125,-256.34765625,-1000.0,-725.09765625
1732134923.241125,-202.1484375,-1000.0,-568.359375,-673.828125
1732134923.241125,-1000.0,198.73046875,943.359375,896.484375
1732134923.241125,-219.23828125,-759.27734375,-890.13671875,-854.00390625
1732134923.241125,-839.84375,185.546875,-229.98046875,-59.5703125
1732134923.241125,244.140625,-1000.0,-1000.0,-1000.0
1732134923.241125,-1000.0,-273.92578125,362.79296875,186.5234375
1732134923.241125,-556.15234375,-796.38671875,-762.6953125,-747.55859375
1732134923.241125,-931.15234375,325.68359375,175.29296875,183.59375
1732134923.436125,355.46875,-1000.0,-1000.0,-1000.0
1732134923.436125,-1000.0,-274.90234375,-196.77734375,-279.78515625
1732134923.436125,-1000.0,-871.09375,-775.87890625,-808.10546875
1732134923.436125,489.2578125,804.19921875,314.453125,516.11328125
1732134923.436125,823.73046875,-815.4296875,-1000.0,-1000.0
1732134923.436125,-747.55859375,-690.4296875,-277.83203125,-312.01171875
1732134923.436125,-1000.0,878.90625,-869.140625,-917.48046875
1732134923.436125,-98.14453125,-856.4453125,795.8984375,979.98046875
1732134923.436125,-857.91015625,-67.3828125,-826.171875,-527.34375
1732134923.436125,-86.42578125,-1000.0,-681.640625,-823.2421875
1732134923.436125,-1000.0,136.23046875,886.23046875,755.37109375
1732134923.436125,-225.5859375,-749.0234375,-860.3515625,-816.40625
1732134923.436125,355.46875,-1000.0,-1000.0,-1000.0
1732134923.436125,-1000.0,-274.90234375,-196.77734375,-279.78515625
1732134923.436125,-1000.0,-871.09375,-775.87890625,-808.10546875
1732134923.436125,489.2578125,804.19921875,314.453125,516.11328125
1732134923.436125,823.73046875,-815.4296875,-1000.0,-1000.0
1732134923.436125,-747.55859375,-690.4296875,-277.83203125,-312.01171875
1732134923.436125,-1000.0,878.90625,-869.140625,-917.48046875
1732134923.436125,-98.14453125,-856.4453125,795.8984375,979.98046875
1732134923.436125,-857.91015625,-67.3828125,-826.171875,-527.34375
1732134923.436125,-86.42578125,-1000.0,-681.640625,-823.2421875
1732134923.436125,-1000.0,136.23046875,886.23046875,755.37109375
1732134923.436125,-225.5859375,-749.0234375,-860.3515625,-816.40625
1732134923.436125,-835.9375,187.01171875,-94.23828125,53.7109375
1732134923.436125,243.65234375,-1000.0,-1000.0,-1000.0
1732134923.436125,-1000.0,-280.2734375,168.9453125,51.26953125
1732134923.436125,-648.4375,-797.8515625,-741.69921875,-739.2578125
1732134923.436125,-986.81640625,463.8671875,166.015625,172.36328125
1732134923.436125,456.0546875,-1000.0,-1000.0,-1000.0
1732134923.436125,-1000.0,-214.35546875,-189.94140625,-190.4296875
1732134923.436125,-1000.0,-929.6875,-814.94140625,-835.44921875
1732134923.436125,281.25,984.375,437.5,611.328125
1732134923.436125,952.1484375,-538.57421875,-1000.0,-1000.0
1732134923.436125,-574.70703125,-764.6484375,-347.16796875,-434.08203125
1732134923.436125,-1000.0,815.91796875,-917.48046875,-986.328125
1732134923.436125,-835.9375,187.01171875,-94.23828125,53.7109375
1732134923.436125,243.65234375,-1000.0,-1000.0,-1000.0
1732134923.436125,-1000.0,-280.2734375,168.9453125,51.26953125
1732134923.436125,-648.4375,-797.8515625,-741.69921875,-739.2578125
1732134923.436125,-986.81640625,463.8671875,166.015625,172.36328125
1732134923.436125,456.0546875,-1000.0,-1000.0,-1000.0
1732134923.436125,-1000.0,-214.35546875,-189.94140625,-190.4296875
1732134923.436125,-1000.0,-929.6875,-814.94140625,-835.44921875
1732134923.436125,281.25,984.375,437.5,611.328125
1732134923.436125,952.1484375,-538.57421875,-1000.0,-1000.0
1732134923.436125,-574.70703125,-764.6484375,-347.16796875,-434.08203125
1732134923.436125,-1000.0,815.91796875,-917.48046875,-986.328125
1732134923.436125,-197.75390625,-823.2421875,918.45703125,-917.96875
1732134923.436125,-864.2578125,60.546875,-628.41796875,-313.96484375
1732134923.436125,35.15625,-1000.0,-845.21484375,-981.93359375
1732134923.436125,-1000.0,106.93359375,724.12109375,548.828125
1732134923.436125,-333.49609375,-741.2109375,-818.359375,-778.80859375
1732134923.436125,-862.79296875,185.546875,18.5546875,162.59765625
1732134923.436125,249.0234375,-1000.0,-1000.0,-1000.0
1732134923.436125,-1000.0,-278.80859375,39.55078125,-68.84765625
1732134923.436125,-786.1328125,-821.77734375,-750.9765625,-750.48828125
1732134923.436125,857.421875,607.421875,193.359375,275.87890625
1732134923.436125,570.3125,-1000.0,-1000.0,-1000.0
1732134923.436125,-970.21484375,-371.09375,-278.80859375,-280.76171875
1732134923.436125,-197.75390625,-823.2421875,918.45703125,-917.96875
1732134923.436125,-864.2578125,60.546875,-628.41796875,-313.96484375
1732134923.436125,35.15625,-1000.0,-845.21484375,-981.93359375
1732134923.436125,-1000.0,106.93359375,724.12109375,548.828125
1732134923.436125,-333.49609375,-741.2109375,-818.359375,-778.80859375
1732134923.436125,-862.79296875,185.546875,18.5546875,162.59765625
1732134923.436125,249.0234375,-1000.0,-1000.0,-1000.0
1732134923.436125,-1000.0,-278.80859375,39.55078125,-68.84765625
1732134923.436125,-786.1328125,-821.77734375,-750.9765625,-750.48828125
1732134923.436125,857.421875,607.421875,193.359375,275.87890625
1732134923.436125,570.3125,-1000.0,-1000.0,-1000.0
1732134923.436125,-970.21484375,-371.09375,-278.80859375,-280.76171875
1732134923.616125,-1000.0,-283.203125,-98.14453125,-175.78125
1732134923.616125,-908.69140625,-850.5859375,-761.71875,-772.4609375
1732134923.616125,685.546875,748.046875,204.58984375,387.20703125
1732134923.616125,673.33984375,-902.34375,-1000.0,-1000.0
1732134923.616125,-905.2734375,-473.6328125,-275.87890625,-284.66796875
1732134923.616125,-1000.0,990.234375,-833.49609375,-885.25390625
1732134923.616125,-6.8359375,-875.48828125,627.9296875,874.0234375
1732134923.616125,-869.140625,-170.8984375,-1000.0,-720.703125
1732134923.616125,-198.2421875,-956.0546875,-583.49609375,-710.9375
1732134923.616125,-1000.0,551.7578125,937.5,873.53515625
1732134923.616125,-218.75,-771.484375,-891.11328125,-847.65625
1732134923.616125,-839.84375,160.64453125,-239.2578125,-58.59375
1732134923.616125,-1000.0,-283.203125,-98.14453125,-175.78125
1732134923.616125,-908.69140625,-850.5859375,-761.71875,-772.4609375
1732134923.616125,685.546875,748.046875,204.58984375,387.20703125
1732134923.616125,673.33984375,-902.34375,-1000.0,-1000.0
1732134923.616125,-905.2734375,-473.6328125,-275.87890625,-284.66796875
1732134923.616125,-1000.0,990.234375,-833.49609375,-885.25390625
1732134923.616125,-6.8359375,-875.48828125,627.9296875,874.0234375
1732134923.616125,-869.140625,-170.8984375,-1000.0,-720.703125
1732134923.616125,-198.2421875,-956.0546875,-583.49609375,-710.9375
1732134923.616125,-1000.0,551.7578125,937.5,873.53515625
1732134923.616125,-218.75,-771.484375,-891.11328125,-847.65625
1732134923.616125,-839.84375,160.64453125,-239.2578125,-58.59375
1732134923.661125,244.140625,-1000.0,-1000.0,-1000.0
1732134923.661125,-1000.0,-65.91796875,349.12109375,166.9921875
1732134923.661125,-556.15234375,-751.953125,-764.16015625,-746.58203125
1732134923.661125,-931.15234375,394.04296875,177.734375,184.08203125
1732134923.661125,355.46875,-1000.0,-1000.0,-1000.0
1732134923.661125,-1000.0,-287.109375,-222.65625,-279.78515625
1732134923.661125,-1000.0,-889.16015625,-782.71484375,-810.546875
1732134923.661125,489.74609375,904.296875,317.87109375,519.04296875
1732134923.661125,819.82421875,-687.5,-1000.0,-1000.0
1732134923.661125,-742.1875,-578.61328125,-277.34375,-358.88671875
1732134923.661125,-1000.0,940.4296875,-868.1640625,-933.10546875
1732134923.661125,-163.0859375,-846.19140625,792.48046875,985.3515625
1732134923.661125,244.140625,-1000.0,-1000.0,-1000.0
1732134923.661125,-1000.0,-65.91796875,349.12109375,166.9921875
1732134923.661125,-556.15234375,-751.953125,-764.16015625,-746.58203125
1732134923.661125,-931.15234375,394.04296875,177.734375,184.08203125
1732134923.661125,355.46875,-1000.0,-1000.0,-1000.0
1732134923.661125,-1000.0,-287.109375,-222.65625,-279.78515625
1732134923.661125,-1000.0,-889.16015625,-782.71484375,-810.546875
1732134923.661125,489.74609375,904.296875,317.87109375,519.04296875
1732134923.661125,819.82421875,-687.5,-1000.0,-1000.0
1732134923.661125,-742.1875,-578.61328125,-277.34375,-358.88671875
1732134923.661125,-1000.0,940.4296875,-868.1640625,-933.10546875
1732134923.661125,-163.0859375,-846.19140625,792.48046875,985.3515625
1732134923.661125,244.140625,-1000.0,-1000.0,-1000.0
1732134923.661125,-1000.0,-65.91796875,349.12109375,166.9921875
1732134923.661125,-556.15234375,-751.953125,-764.16015625,-746.58203125
1732134923.661125,-931.15234375,394.04296875,177.734375,184.08203125
1732134923.661125,355.46875,-1000.0,-1000.0,-1000.0
1732134923.661125,-1000.0,-287.109375,-222.65625,-279.78515625
1732134923.661125,-1000.0,-889.16015625,-782.71484375,-810.546875
1732134923.661125,489.74609375,904.296875,317.87109375,519.04296875
1732134923.661125,819.82421875,-687.5,-1000.0,-1000.0
1732134923.661125,-742.1875,-578.61328125,-277.34375,-358.88671875
1732134923.661125,-1000.0,940.4296875,-868.1640625,-933.10546875
1732134923.661125,-163.0859375,-846.19140625,792.48046875,985.3515625
1732134923.661125,-875.0,-17.578125,-829.58984375,-521.97265625
1732134923.661125,-77.1484375,-1000.0,-696.77734375,-860.3515625
1732134923.661125,-1000.0,384.765625,876.46484375,713.37890625
1732134923.661125,-224.12109375,-750.9765625,-858.3984375,-808.59375
1732134923.661125,-836.42578125,169.43359375,-92.28515625,52.734375
1732134923.661125,243.65234375,-1000.0,-1000.0,-1000.0
1732134923.661125,-1000.0,-172.36328125,149.4140625,52.734375
1732134923.661125,-647.94921875,-778.80859375,-750.0,-746.09375
1732134923.661125,-986.328125,499.51171875,186.5234375,190.4296875
1732134923.661125,456.0546875,-1000.0,-1000.0,-1000.0
1732134923.661125,-1000.0,-286.62109375,-277.83203125,-278.80859375
1732134923.661125,-1000.0,-926.26953125,-805.17578125,-826.171875
1732134923.661125,-875.0,-17.578125,-829.58984375,-521.97265625
1732134923.661125,-77.1484375,-1000.0,-696.77734375,-860.3515625
1732134923.661125,-1000.0,384.765625,876.46484375,713.37890625
1732134923.661125,-224.12109375,-750.9765625,-858.3984375,-808.59375
1732134923.661125,-836.42578125,169.43359375,-92.28515625,52.734375
1732134923.661125,243.65234375,-1000.0,-1000.0,-1000.0
1732134923.661125,-1000.0,-172.36328125,149.4140625,52.734375
1732134923.661125,-647.94921875,-778.80859375,-750.0,-746.09375
1732134923.661125,-986.328125,499.51171875,186.5234375,190.4296875
1732134923.661125,456.0546875,-1000.0,-1000.0,-1000.0
1732134923.661125,-1000.0,-286.62109375,-277.83203125,-278.80859375
1732134923.661125,-1000.0,-926.26953125,-805.17578125,-826.171875
1732134923.781125,281.25,-968.26171875,443.84765625,612.3046875
1732134923.781125,952.1484375,-463.8671875,-1000.0,-1000.0
1732134923.781125,-574.21875,-681.640625,-364.74609375,-469.7265625
1732134923.781125,-1000.0,879.39453125,-927.734375,998.046875
1732134923.781125,-197.75390625,-826.171875,934.5703125,-912.109375
1732134923.781125,-864.2578125,128.90625,-607.91015625,-314.94140625
1732134923.781125,35.15625,-1000.0,-852.05078125,-988.28125
1732134923.781125,-1000.0,175.78125,716.796875,539.55078125
1732134923.781125,-333.49609375,-734.375,-816.40625,-777.34375
1732134923.781125,-863.28125,179.19921875,33.203125,162.59765625
1732134923.781125,249.0234375,-1000.0,-1000.0,-1000.0
1732134923.781125,-1000.0,-277.34375,20.5078125,-69.3359375
1732134923.781125,281.25,-968.26171875,443.84765625,612.3046875
1732134923.781125,952.1484375,-463.8671875,-1000.0,-1000.0
1732134923.781125,-574.21875,-681.640625,-364.74609375,-469.7265625
1732134923.781125,-1000.0,879.39453125,-927.734375,998.046875
1732134923.781125,-197.75390625,-826.171875,934.5703125,-912.109375
1732134923.781125,-864.2578125,128.90625,-607.91015625,-314.94140625
1732134923.781125,35.15625,-1000.0,-852.05078125,-988.28125
1732134923.781125,-1000.0,175.78125,716.796875,539.55078125
1732134923.781125,-333.49609375,-734.375,-816.40625,-777.34375
1732134923.781125,-863.28125,179.19921875,33.203125,162.59765625
1732134923.781125,249.0234375,-1000.0,-1000.0,-1000.0
1732134923.781125,-1000.0,-277.34375,20.5078125,-69.3359375
1732134923.781125,281.25,-968.26171875,443.84765625,612.3046875
1732134923.781125,952.1484375,-463.8671875,-1000.0,-1000.0
1732134923.781125,-574.21875,-681.640625,-364.74609375,-469.7265625
1732134923.781125,-1000.0,879.39453125,-927.734375,998.046875
1732134923.781125,-197.75390625,-826.171875,934.5703125,-912.109375
1732134923.781125,-864.2578125,128.90625,-607.91015625,-314.94140625
1732134923.781125,35.15625,-1000.0,-852.05078125,-988.28125
1732134923.781125,-1000.0,175.78125,716.796875,539.55078125
1732134923.781125,-333.49609375,-734.375,-816.40625,-777.34375
1732134923.781125,-863.28125,179.19921875,33.203125,162.59765625
1732134923.781125,249.0234375,-1000.0,-1000.0,-1000.0
1732134923.781125,-1000.0,-277.34375,20.5078125,-69.3359375
1732134923.781125,-786.1328125,-827.63671875,-752.44140625,-750.0
1732134923.781125,858.88671875,639.16015625,194.82421875,285.64453125
1732134923.781125,564.94140625,-1000.0,-1000.0,-1000.0
1732134923.781125,-960.9375,-336.9140625,-278.3203125,-282.71484375
1732134923.781125,-1000.0,-959.47265625,-819.3359375,-855.95703125
1732134923.781125,79.1015625,-901.3671875,550.29296875,751.46484375
1732134923.781125,-955.078125,-278.3203125,-1000.0,-893.06640625
1732134923.781125,-386.71875,-814.453125,-475.09765625,-602.05078125
1732134923.781125,-1000.0,746.09375,-998.046875,937.01171875
1732134923.781125,-211.9140625,-799.31640625,-948.73046875,-875.48828125
1732134923.781125,-846.19140625,153.3203125,-386.23046875,-187.98828125
1732134923.781125,198.73046875,-1000.0,-994.140625,-1000.0
1732134923.781125,-786.1328125,-827.63671875,-752.44140625,-750.0
1732134923.781125,858.88671875,639.16015625,194.82421875,285.64453125
1732134923.781125,564.94140625,-1000.0,-1000.0,-1000.0
1732134923.781125,-960.9375,-336.9140625,-278.3203125,-282.71484375
1732134923.781125,-1000.0,-959.47265625,-819.3359375,-855.95703125
1732134923.781125,79.1015625,-901.3671875,550.29296875,751.46484375
1732134923.781125,-955.078125,-278.3203125,-1000.0,-893.06640625
1732134923.781125,-386.71875,-814.453125,-475.09765625,-602.05078125
1732134923.781125,-1000.0,746.09375,-998.046875,937.01171875
1732134923.781125,-211.9140625,-799.31640625,-948.73046875,-875.48828125
1732134923.781125,-846.19140625,153.3203125,-386.23046875,-187.98828125
1732134923.781125,198.73046875,-1000.0,-994.140625,-1000.0
1732134923.781125,-786.1328125,-827.63671875,-752.44140625,-750.0
1732134923.781125,858.88671875,639.16015625,194.82421875,285.64453125
1732134923.781125,564.94140625,-1000.0,-1000.0,-1000.0
1732134923.781125,-960.9375,-336.9140625,-278.3203125,-282.71484375
1732134923.781125,-1000.0,-959.47265625,-819.3359375,-855.95703125
1732134923.781125,79.1015625,-901.3671875,550.29296875,751.46484375
1732134923.781125,-955.078125,-278.3203125,-1000.0,-893.06640625
1732134923.781125,-386.71875,-814.453125,-475.09765625,-602.05078125
1732134923.781125,-1000.0,746.09375,-998.046875,937.01171875
1732134923.781125,-211.9140625,-799.31640625,-948.73046875,-875.48828125
1732134923.781125,-846.19140625,153.3203125,-386.23046875,-187.98828125
1732134923.781125,198.73046875,-1000.0,-994.140625,-1000.0
1732134923.781125,-1000.0,40.0390625,526.85546875,359.375
1732134923.781125,-450.68359375,-735.83984375,-782.2265625,-759.27734375
1732134923.781125,-890.625,286.62109375,154.78515625,173.33984375
1732134923.781125,251.953125,-1000.0,-1000.0,-1000.0
1732134923.781125,-1000.0,-280.2734375,-108.3984375,-184.5703125
1732134923.781125,-908.203125,-865.234375,-761.71875,-774.90234375
1732134923.781125,686.03515625,806.15234375,208.984375,408.203125
1732134923.781125,669.921875,-826.66015625,-1000.0,-1000.0
1732134923.781125,-899.4140625,-470.703125,-273.4375,-288.0859375
1732134923.781125,-1000.0,992.1875,-844.23828125,-883.7890625
1732134923.781125,-62.5,-868.65234375,674.8046875,873.53515625
1732134923.781125,-879.8828125,-136.71875,-978.515625,-720.703125
1732134923.781125,-1000.0,40.0390625,526.85546875,359.375
1732134923.781125,-450.68359375,-735.83984375,-782.2265625,-759.27734375
1732134923.781125,-890.625,286.62109375,154.78515625,173.33984375
1732134923.781125,251.953125,-1000.0,-1000.0,-1000.0
1732134923.781125,-1000.0,-280.2734375,-108.3984375,-184.5703125
1732134923.781125,-908.203125,-865.234375,-761.71875,-774.90234375
1732134923.781125,686.03515625,806.15234375,208.984375,408.203125
1732134923.781125,669.921875,-826.66015625,-1000.0,-1000.0
1732134923.781125,-899.4140625,-470.703125,-273.4375,-288.0859375
1732134923.781125,-1000.0,992.1875,-844.23828125,-883.7890625
1732134923.781125,-62.5,-868.65234375,674.8046875,873.53515625
1732134923.781125,-879.8828125,-136.71875,-978.515625,-720.703125
1732134923.901125,-191.40625,-942.87109375,-591.30859375,-709.47265625
1732134923.901125,-1000.0,559.08203125,936.03515625,871.09375
1732134923.901125,-217.7734375,-770.5078125,-884.765625,-845.21484375
1732134923.901125,-839.84375,160.64453125,-212.40234375,-37.59765625
1732134923.901125,244.140625,-1000.0,-1000.0,-1000.0
1732134923.901125,-1000.0,-67.87109375,338.8671875,164.55078125
1732134923.901125,-556.15234375,-753.41796875,-762.20703125,-744.62890625
1732134923.901125,-930.6640625,411.1328125,177.734375,183.59375
1732134923.901125,354.4921875,-1000.0,-1000.0,-1000.0
1732134923.901125,-1000.0,-285.15625,-223.6328125,-279.78515625
1732134923.901125,-1000.0,-901.3671875,-783.69140625,-811.03515625
1732134923.901125,479.00390625,947.75390625,337.40234375,519.53125
1732134923.901125,-191.40625,-942.87109375,-591.30859375,-709.47265625
1732134923.901125,-1000.0,559.08203125,936.03515625,871.09375
1732134923.901125,-217.7734375,-770.5078125,-884.765625,-845.21484375
1732134923.901125,-839.84375,160.64453125,-212.40234375,-37.59765625
1732134923.901125,244.140625,-1000.0,-1000.0,-1000.0
1732134923.901125,-1000.0,-67.87109375,338.8671875,164.55078125
1732134923.901125,-556.15234375,-753.41796875,-762.20703125,-744.62890625
1732134923.901125,-930.6640625,411.1328125,177.734375,183.59375
1732134923.901125,354.4921875,-1000.0,-1000.0,-1000.0
1732134923.901125,-1000.0,-285.15625,-223.6328125,-279.78515625
1732134923.901125,-1000.0,-901.3671875,-783.69140625,-811.03515625
1732134923.901125,479.00390625,947.75390625,337.40234375,519.53125
1732134923.901125,818.84765625,-619.62890625,-1000.0,-1000.0
1732134923.901125,-739.74609375,-589.84375,-278.3203125,-368.65234375
1732134923.901125,-1000.0,935.05859375,-874.51171875,-936.5234375
1732134923.901125,-188.4765625,-840.8203125,819.3359375,986.328125
1732134923.901125,-881.8359375,11.71875,-793.45703125,-523.4375
1732134923.901125,-73.2421875,-1000.0,-701.171875,-856.93359375
1732134923.901125,-1000.0,370.60546875,875.0,709.47265625
1732134923.901125,-223.14453125,-748.046875,-854.4921875,-804.6875
1732134923.901125,-836.42578125,169.43359375,-74.21875,100.5859375
1732134923.901125,243.1640625,-1000.0,-1000.0,-1000.0
1732134923.901125,-1000.0,-178.7109375,146.97265625,45.8984375
1732134923.901125,-647.94921875,-784.66796875,-749.0234375,-742.67578125
1732134923.901125,818.84765625,-619.62890625,-1000.0,-1000.0
1732134923.901125,-739.74609375,-589.84375,-278.3203125,-368.65234375
1732134923.901125,-1000.0,935.05859375,-874.51171875,-936.5234375
1732134923.901125,-188.4765625,-840.8203125,819.3359375,986.328125
1732134923.901125,-881.8359375,11.71875,-793.45703125,-523.4375
1732134923.901125,-73.2421875,-1000.0,-701.171875,-856.93359375
1732134923.901125,-1000.0,370.60546875,875.0,709.47265625
1732134923.901125,-223.14453125,-748.046875,-854.4921875,-804.6875
1732134923.901125,-836.42578125,169.43359375,-74.21875,100.5859375
1732134923.901125,243.1640625,-1000.0,-1000.0,-1000.0
1732134923.901125,-1000.0,-178.7109375,146.97265625,45.8984375
1732134923.901125,-647.94921875,-784.66796875,-749.0234375,-742.67578125
1732134923.901125,818.84765625,-619.62890625,-1000.0,-1000.0
1732134923.901125,-739.74609375,-589.84375,-278.3203125,-368.65234375
1732134923.901125,-1000.0,935.05859375,-874.51171875,-936.5234375
1732134923.901125,-188.4765625,-840.8203125,819.3359375,986.328125
1732134923.901125,-881.8359375,11.71875,-793.45703125,-523.4375
1732134923.901125,-73.2421875,-1000.0,-701.171875,-856.93359375
1732134923.901125,-1000.0,370.60546875,875.0,709.47265625
1732134923.901125,-223.14453125,-748.046875,-854.4921875,-804.6875
1732134923.901125,-836.42578125,169.43359375,-74.21875,100.5859375
1732134923.901125,243.1640625,-1000.0,-1000.0,-1000.0
1732134923.901125,-1000.0,-178.7109375,146.97265625,45.8984375
1732134923.901125,-647.94921875,-784.66796875,-749.0234375,-742.67578125
1732134923.901125,-985.83984375,536.1328125,186.5234375,189.453125
1732134923.901125,452.63671875,-1000.0,-1000.0,-1000.0
1732134923.901125,-1000.0,-291.015625,-277.83203125,-278.80859375
1732134923.901125,-1000.0,-932.12890625,-806.15234375,-827.1484375
1732134923.901125,237.3046875,-945.80078125,452.63671875,612.79296875
1732134923.901125,949.21875,-418.9453125,-1000.0,-1000.0
1732134923.901125,-571.2890625,-699.70703125,-368.65234375,-483.3984375
1732134923.901125,-1000.0,867.1875,-931.15234375,992.1875
1732134923.901125,-201.66015625,-821.2890625,944.82421875,-909.66796875
1732134923.901125,-859.375,143.06640625,-592.7734375,-315.91796875
1732134923.901125,74.70703125,-1000.0,-853.02734375,-987.79296875
1732134923.901125,-1000.0,161.62109375,715.8203125,539.55078125
1732134923.901125,-985.83984375,536.1328125,186.5234375,189.453125
1732134923.901125,452.63671875,-1000.0,-1000.0,-1000.0
1732134923.901125,-1000.0,-291.015625,-277.83203125,-278.80859375
1732134923.901125,-1000.0,-932.12890625,-806.15234375,-827.1484375
1732134923.901125,237.3046875,-945.80078125,452.63671875,612.79296875
1732134923.901125,949.21875,-418.9453125,-1000.0,-1000.0
1732134923.901125,-571.2890625,-699.70703125,-368.65234375,-483.3984375
1732134923.901125,-1000.0,867.1875,-931.15234375,992.1875
1732134923.901125,-201.66015625,-821.2890625,944.82421875,-909.66796875
1732134923.901125,-859.375,143.06640625,-592.7734375,-315.91796875
1732134923.901125,74.70703125,-1000.0,-853.02734375,-987.79296875
1732134923.901125,-1000.0,161.62109375,715.8203125,539.55078125
1732134924.036125,-338.37890625,-732.421875,-814.94140625,-776.85546875
1732134924.036125,-859.86328125,180.17578125,43.45703125,162.59765625
1732134924.036125,248.53515625,-1000.0,-1000.0,-1000.0
1732134924.036125,-1000.0,-274.90234375,11.71875,-70.3125
1732134924.036125,-786.1328125,-835.9375,-752.9296875,-750.0
1732134924.036125,859.375,674.8046875,195.3125,298.33984375
1732134924.036125,562.98828125,-978.02734375,-1000.0,-1000.0
1732134924.036125,-957.51953125,-352.5390625,-278.3203125,-284.1796875
1732134924.036125,-1000.0,-962.40234375,-821.2890625,-854.98046875
1732134924.036125,50.78125,-898.92578125,563.96484375,750.9765625
1732134924.036125,-958.49609375,-265.13671875,-1000.0,-893.5546875
1732134924.036125,-384.27734375,-836.42578125,-484.86328125,-604.00390625
1732134924.036125,-338.37890625,-732.421875,-814.94140625,-776.85546875
1732134924.036125,-859.86328125,180.17578125,43.45703125,162.59765625
1732134924.036125,248.53515625,-1000.0,-1000.0,-1000.0
1732134924.036125,-1000.0,-274.90234375,11.71875,-70.3125
1732134924.036125,-786.1328125,-835.9375,-752.9296875,-750.0
1732134924.036125,859.375,674.8046875,195.3125,298.33984375
1732134924.036125,562.98828125,-978.02734375,-1000.0,-1000.0
1732134924.036125,-957.51953125,-352.5390625,-278.3203125,-284.1796875
1732134924.036125,-1000.0,-962.40234375,-821.2890625,-854.98046875
1732134924.036125,50.78125,-898.92578125,563.96484375,750.9765625
1732134924.036125,-958.49609375,-265.13671875,-1000.0,-893.5546875
1732134924.036125,-384.27734375,-836.42578125,-484.86328125,-604.00390625
1732134924.036125,-1000.0,721.19140625,996.09375,932.6171875
1732134924.036125,-215.33203125,-794.43359375,-938.4765625,-871.09375
1732134924.036125,-843.26171875,152.83203125,-366.2109375,-167.48046875
1732134924.036125,242.67578125,-1000.0,-1000.0,-1000.0
1732134924.036125,-1000.0,37.109375,513.671875,356.93359375
1732134924.036125,-457.03125,-736.81640625,-779.296875,-758.30078125
1732134924.036125,-886.71875,314.453125,167.96875,173.828125
1732134924.036125,245.60546875,-1000.0,-1000.0,-1000.0
1732134924.036125,-1000.0,-282.71484375,-115.72265625,-189.94140625
1732134924.036125,-950.1953125,-870.1171875,-761.23046875,-776.3671875
1732134924.036125,621.58203125,831.0546875,224.12109375,409.1796875
1732134924.036125,675.78125,-793.9453125,-1000.0,-1000.0
1732134924.036125,-1000.0,721.19140625,996.09375,932.6171875
1732134924.036125,-215.33203125,-794.43359375,-938.4765625,-871.09375
1732134924.036125,-843.26171875,152.83203125,-366.2109375,-167.48046875
1732134924.036125,242.67578125,-1000.0,-1000.0,-1000.0
1732134924.036125,-1000.0,37.109375,513.671875,356.93359375
1732134924.036125,-457.03125,-736.81640625,-779.296875,-758.30078125
1732134924.036125,-886.71875,314.453125,167.96875,173.828125
1732134924.036125,245.60546875,-1000.0,-1000.0,-1000.0
1732134924.036125,-1000.0,-282.71484375,-115.72265625,-189.94140625
1732134924.036125,-950.1953125,-870.1171875,-761.23046875,-776.3671875
1732134924.036125,621.58203125,831.0546875,224.12109375,409.1796875
1732134924.036125,675.78125,-793.9453125,-1000.0,-1000.0
1732134924.036125,-1000.0,721.19140625,996.09375,932.6171875
1732134924.036125,-215.33203125,-794.43359375,-938.4765625,-871.09375
1732134924.036125,-843.26171875,152.83203125,-366.2109375,-167.48046875
1732134924.036125,242.67578125,-1000.0,-1000.0,-1000.0
1732134924.036125,-1000.0,37.109375,513.671875,356.93359375
1732134924.036125,-457.03125,-736.81640625,-779.296875,-758.30078125
1732134924.036125,-886.71875,314.453125,167.96875,173.828125
1732134924.036125,245.60546875,-1000.0,-1000.0,-1000.0
1732134924.036125,-1000.0,-282.71484375,-115.72265625,-189.94140625
1732134924.036125,-950.1953125,-870.1171875,-761.23046875,-776.3671875
1732134924.036125,621.58203125,831.0546875,224.12109375,409.1796875
1732134924.036125,675.78125,-793.9453125,-1000.0,-1000.0
1732134924.036125,-898.4375,-486.81640625,-274.90234375,-288.0859375
1732134924.036125,-1000.0,986.81640625,-846.19140625,-883.30078125
1732134924.036125,-83.984375,-865.72265625,688.4765625,873.53515625
1732134924.036125,-874.0234375,-124.0234375,-963.37890625,-721.19140625
1732134924.036125,-154.78515625,-956.54296875,-593.26171875,-707.03125
1732134924.036125,-1000.0,538.0859375,936.03515625,867.67578125
1732134924.036125,-220.21484375,-768.06640625,-883.7890625,-840.8203125
1732134924.036125,-837.890625,162.109375,-199.21875,-4.8828125
1732134924.036125,244.140625,-1000.0,-1000.0,-1000.0
1732134924.036125,-1000.0,-85.44921875,318.84765625,160.15625
1732134924.036125,-556.15234375,-758.30078125,-761.23046875,-742.1875
1732134924.036125,-929.6875,434.08203125,179.19921875,183.10546875
1732134924.036125,-898.4375,-486.81640625,-274.90234375,-288.0859375
1732134924.036125,-1000.0,986.81640625,-846.19140625,-883.30078125
1732134924.036125,-83.984375,-865.72265625,688.4765625,873.53515625
1732134924.036125,-874.0234375,-124.0234375,-963.37890625,-721.19140625
1732134924.036125,-154.78515625,-956.54296875,-593.26171875,-707.03125
1732134924.036125,-1000.0,538.0859375,936.03515625,867.67578125
1732134924.036125,-220.21484375,-768.06640625,-883.7890625,-840.8203125
1732134924.036125,-837.890625,162.109375,-199.21875,-4.8828125
1732134924.036125,244.140625,-1000.0,-1000.0,-1000.0
1732134924.036125,-1000.0,-85.44921875,318.84765625,160.15625
1732134924.036125,-556.15234375,-758.30078125,-761.23046875,-742.1875
1732134924.036125,-929.6875,434.08203125,179.19921875,183.10546875
1732134924.036125,-898.4375,-486.81640625,-274.90234375,-288.0859375
1732134924.036125,-1000.0,986.81640625,-846.19140625,-883.30078125
1732134924.036125,-83.984375,-865.72265625,688.4765625,873.53515625
1732134924.036125,-874.0234375,-124.0234375,-963.37890625,-721.19140625
1732134924.036125,-154.78515625,-956.54296875,-593.26171875,-707.03125
1732134924.036125,-1000.0,538.0859375,936.03515625,867.67578125
1732134924.036125,-220.21484375,-768.06640625,-883.7890625,-840.8203125
1732134924.036125,-837.890625,162.109375,-199.21875,-4.8828125
1732134924.036125,244.140625,-1000.0,-1000.0,-1000.0
1732134924.036125,-1000.0,-85.44921875,318.84765625,160.15625
1732134924.036125,-556.15234375,-758.30078125,-761.23046875,-742.1875
1732134924.036125,-929.6875,434.08203125,179.19921875,183.10546875
1732134924.186125,349.609375,-1000.0,-1000.0,-1000.0
1732134924.186125,-1000.0,-288.0859375,-239.74609375,-279.78515625
1732134924.186125,-1000.0,-902.34375,-788.0859375,-811.5234375
1732134924.186125,415.52734375,955.078125,348.6328125,520.01953125
1732134924.186125,822.75390625,-606.93359375,-1000.0,-1000.0
1732134924.186125,-739.74609375,-605.46875,-278.3203125,-377.9296875
1732134924.186125,-1000.0,927.24609375,-877.9296875,-942.87109375
1732134924.186125,-195.80078125,-838.8671875,834.9609375,996.58203125
1732134924.186125,-870.60546875,16.11328125,-772.94921875,-508.7890625
1732134924.186125,-15.13671875,-1000.0,-703.61328125,-856.4453125
1732134924.186125,-1000.0,349.609375,875.0,707.03125
1732134924.186125,-229.4921875,-747.55859375,-854.00390625,-802.734375
1732134924.186125,349.609375,-1000.0,-1000.0,-1000.0
1732134924.186125,-1000.0,-288.0859375,-239.74609375,-279.78515625
1732134924.186125,-1000.0,-902.34375,-788.0859375,-811.5234375
1732134924.186125,415.52734375,955.078125,348.6328125,520.01953125
1732134924.186125,822.75390625,-606.93359375,-1000.0,-1000.0
1732134924.186125,-739.74609375,-605.46875,-278.3203125,-377.9296875
1732134924.186125,-1000.0,927.24609375,-877.9296875,-942.87109375
1732134924.186125,-195.80078125,-838.8671875,834.9609375,996.58203125
1732134924.186125,-870.60546875,16.11328125,-772.94921875,-508.7890625
1732134924.186125,-15.13671875,-1000.0,-703.61328125,-856.4453125
1732134924.186125,-1000.0,349.609375,875.0,707.03125
1732134924.186125,-229.4921875,-747.55859375,-854.00390625,-802.734375
1732134924.186125,-832.51953125,171.38671875,-64.453125,126.953125
1732134924.186125,242.67578125,-1000.0,-1000.0,-1000.0
1732134924.186125,-1000.0,-202.1484375,127.44140625,42.48046875
1732134924.186125,-647.94921875,-791.9921875,-750.0,-740.234375
1732134924.186125,-984.375,552.24609375,187.5,188.96484375
1732134924.186125,448.73046875,-1000.0,-1000.0,-1000.0
1732134924.186125,-1000.0,-291.50390625,-278.3203125,-278.80859375
1732134924.186125,-1000.0,-934.5703125,-808.10546875,-827.1484375
1732134924.186125,184.08203125,-937.01171875,471.19140625,613.28125
1732134924.186125,945.3125,-399.90234375,-1000.0,-1000.0
1732134924.186125,-567.87109375,-712.890625,-379.39453125,-488.28125
1732134924.186125,-1000.0,859.86328125,-937.5,982.91015625
1732134924.186125,-832.51953125,171.38671875,-64.453125,126.953125
1732134924.186125,242.67578125,-1000.0,-1000.0,-1000.0
1732134924.186125,-1000.0,-202.1484375,127.44140625,42.48046875
1732134924.186125,-647.94921875,-791.9921875,-750.0,-740.234375
1732134924.186125,-984.375,552.24609375,187.5,188.96484375
1732134924.186125,448.73046875,-1000.0,-1000.0,-1000.0
1732134924.186125,-1000.0,-291.50390625,-278.3203125,-278.80859375
1732134924.186125,-1000.0,-934.5703125,-808.10546875,-827.1484375
1732134924.186125,184.08203125,-937.01171875,471.19140625,613.28125
1732134924.186125,945.3125,-399.90234375,-1000.0,-1000.0
1732134924.186125,-567.87109375,-712.890625,-379.39453125,-488.28125
1732134924.186125,-1000.0,859.86328125,-937.5,982.91015625
1732134924.186125,-208.0078125,-820.3125,960.44921875,-897.4609375
1732134924.186125,-851.07421875,147.4609375,-563.4765625,-275.87890625
1732134924.186125,137.20703125,-1000.0,-872.55859375,-984.86328125
1732134924.186125,-1000.0,129.39453125,691.89453125,536.1328125
1732134924.186125,-346.19140625,-730.95703125,-810.05859375,-776.3671875
1732134924.186125,-854.98046875,205.078125,58.59375,164.55078125
1732134924.186125,243.65234375,-1000.0,-1000.0,-1000.0
1732134924.186125,-1000.0,-277.83203125,-1.953125,-94.23828125
1732134924.186125,-825.68359375,-837.890625,-753.41796875,-754.39453125
1732134924.186125,807.6171875,687.5,196.2890625,301.26953125
1732134924.186125,570.80078125,-966.30859375,-1000.0,-1000.0
1732134924.186125,-958.984375,-376.953125,-278.3203125,-284.1796875
1732134924.186125,-208.0078125,-820.3125,960.44921875,-897.4609375
1732134924.186125,-851.07421875,147.4609375,-563.4765625,-275.87890625
1732134924.186125,137.20703125,-1000.0,-872.55859375,-984.86328125
1732134924.186125,-1000.0,129.39453125,691.89453125,536.1328125
1732134924.186125,-346.19140625,-730.95703125,-810.05859375,-776.3671875
1732134924.186125,-854.98046875,205.078125,58.59375,164.55078125
1732134924.186125,243.65234375,-1000.0,-1000.0,-1000.0
1732134924.186125,-1000.0,-277.83203125,-1.953125,-94.23828125
1732134924.186125,-825.68359375,-837.890625,-753.41796875,-754.39453125
1732134924.186125,807.6171875,687.5,196.2890625,301.26953125
1732134924.186125,570.80078125,-966.30859375,-1000.0,-1000.0
1732134924.186125,-958.984375,-376.953125,-278.3203125,-284.1796875
1732134924.321125,-1000.0,-970.703125,-822.265625,-854.98046875
1732134924.321125,43.9453125,-893.5546875,572.265625,751.46484375
1732134924.321125,-939.94140625,-253.90625,-1000.0,-894.04296875
1732134924.321125,-349.609375,-848.6328125,-485.3515625,-601.07421875
1732134924.321125,-1000.0,706.54296875,992.67578125,927.24609375
1732134924.321125,-215.8203125,-793.45703125,-928.22265625,-862.3046875
1732134924.321125,-841.796875,156.73828125,-338.8671875,-122.0703125
1732134924.321125,242.67578125,-1000.0,-1000.0,-1000.0
1732134924.321125,-1000.0,0.0,492.67578125,352.5390625
1732134924.321125,-457.03125,-741.69921875,-777.34375,-756.34765625
1732134924.321125,-885.25390625,328.61328125,169.43359375,174.8046875
1732134924.321125,240.234375,-1000.0,-1000.0,-1000.0
1732134924.321125,-1000.0,-970.703125,-822.265625,-854.98046875
1732134924.321125,43.9453125,-893.5546875,572.265625,751.46484375
1732134924.321125,-939.94140625,-253.90625,-1000.0,-894.04296875
1732134924.321125,-349.609375,-848.6328125,-485.3515625,-601.07421875
1732134924.321125,-1000.0,706.54296875,992.67578125,927.24609375
1732134924.321125,-215.8203125,-793.45703125,-928.22265625,-862.3046875
1732134924.321125,-841.796875,156.73828125,-338.8671875,-122.0703125
1732134924.321125,242.67578125,-1000.0,-1000.0,-1000.0
1732134924.321125,-1000.0,0.0,492.67578125,352.5390625
1732134924.321125,-457.03125,-741.69921875,-777.34375,-756.34765625
1732134924.321125,-885.25390625,328.61328125,169.43359375,174.8046875
1732134924.321125,240.234375,-1000.0,-1000.0,-1000.0
1732134924.321125,-1000.0,-284.1796875,-130.37109375,-210.44921875
1732134924.321125,-997.55859375,-872.0703125,-763.671875,-782.2265625
1732134924.321125,548.828125,838.8671875,241.69921875,412.109375
1732134924.321125,684.08203125,-783.69140625,-1000.0,-1000.0
1732134924.321125,-899.4140625,-503.90625,-275.87890625,-285.15625
1732134924.321125,-1000.0,978.515625,-848.6328125,-890.13671875
1732134924.321125,-91.30859375,-861.81640625,703.125,894.53125
1732134924.321125,-860.3515625,-111.328125,-946.77734375,-688.96484375
1732134924.321125,-104.00390625,-967.28515625,-595.703125,-708.49609375
1732134924.321125,-1000.0,520.99609375,934.5703125,864.2578125
1732134924.321125,-224.609375,-767.08984375,-881.34765625,-835.44921875
1732134924.321125,-834.9609375,164.55078125,-178.7109375,27.34375
1732134924.321125,-1000.0,-284.1796875,-130.37109375,-210.44921875
1732134924.321125,-997.55859375,-872.0703125,-763.671875,-782.2265625
1732134924.321125,548.828125,838.8671875,241.69921875,412.109375
1732134924.321125,684.08203125,-783.69140625,-1000.0,-1000.0
1732134924.321125,-899.4140625,-503.90625,-275.87890625,-285.15625
1732134924.321125,-1000.0,978.515625,-848.6328125,-890.13671875
1732134924.321125,-91.30859375,-861.81640625,703.125,894.53125
1732134924.321125,-860.3515625,-111.328125,-946.77734375,-688.96484375
1732134924.321125,-104.00390625,-967.28515625,-595.703125,-708.49609375
1732134924.321125,-1000.0,520.99609375,934.5703125,864.2578125
1732134924.321125,-224.609375,-767.08984375,-881.34765625,-835.44921875
1732134924.321125,-834.9609375,164.55078125,-178.7109375,27.34375
1732134924.321125,-1000.0,-284.1796875,-130.37109375,-210.44921875
1732134924.321125,-997.55859375,-872.0703125,-763.671875,-782.2265625
1732134924.321125,548.828125,838.8671875,241.69921875,412.109375
1732134924.321125,684.08203125,-783.69140625,-1000.0,-1000.0
1732134924.321125,-899.4140625,-503.90625,-275.87890625,-285.15625
1732134924.321125,-1000.0,978.515625,-848.6328125,-890.13671875
1732134924.321125,-91.30859375,-861.81640625,703.125,894.53125
1732134924.321125,-860.3515625,-111.328125,-946.77734375,-688.96484375
1732134924.321125,-104.00390625,-967.28515625,-595.703125,-708.49609375
1732134924.321125,-1000.0,520.99609375,934.5703125,864.2578125
1732134924.321125,-224.609375,-767.08984375,-881.34765625,-835.44921875
1732134924.321125,-834.9609375,164.55078125,-178.7109375,27.34375
1732134924.426125,243.65234375,-1000.0,-1000.0,-1000.0
1732134924.426125,-1000.0,-112.3046875,292.96875,156.25
1732134924.426125,-566.89453125,-764.6484375,-758.7890625,-740.234375
1732134924.426125,-934.08203125,452.1484375,180.17578125,182.6171875
1732134924.426125,343.75,-1000.0,-1000.0,-1000.0
1732134924.426125,-1000.0,-289.0625,-245.60546875,-279.296875
1732134924.426125,-1000.0,-906.25,-790.0390625,-812.01171875
1732134924.426125,308.10546875,969.23828125,369.140625,520.99609375
1732134924.426125,830.078125,-583.984375,-1000.0,-1000.0
1732134924.426125,-737.79296875,-621.09375,-280.2734375,-383.7890625
1732134924.426125,-1000.0,921.38671875,-880.37109375,-961.42578125
1732134924.426125,-201.171875,-837.890625,848.14453125,-960.9375
1732134924.426125,243.65234375,-1000.0,-1000.0,-1000.0
1732134924.426125,-1000.0,-112.3046875,292.96875,156.25
1732134924.426125,-566.89453125,-764.6484375,-758.7890625,-740.234375
1732134924.426125,-934.08203125,452.1484375,180.17578125,182.6171875
1732134924.426125,343.75,-1000.0,-1000.0,-1000.0
1732134924.426125,-1000.0,-289.0625,-245.60546875,-279.296875
1732134924.426125,-1000.0,-906.25,-790.0390625,-812.01171875
1732134924.426125,308.10546875,969.23828125,369.140625,520.99609375
1732134924.426125,830.078125,-583.984375,-1000.0,-1000.0
1732134924.426125,-737.79296875,-621.09375,-280.2734375,-383.7890625
1732134924.426125,-1000.0,921.38671875,-880.37109375,-961.42578125
1732134924.426125,-201.171875,-837.890625,848.14453125,-960.9375
1732134924.426125,243.65234375,-1000.0,-1000.0,-1000.0
1732134924.426125,-1000.0,-112.3046875,292.96875,156.25
1732134924.426125,-566.89453125,-764.6484375,-758.7890625,-740.234375
1732134924.426125,-934.08203125,452.1484375,180.17578125,182.6171875
1732134924.426125,343.75,-1000.0,-1000.0,-1000.0
1732134924.426125,-1000.0,-289.0625,-245.60546875,-279.296875
1732134924.426125,-1000.0,-906.25,-790.0390625,-812.01171875
1732134924.426125,308.10546875,969.23828125,369.140625,520.99609375
1732134924.426125,830.078125,-583.984375,-1000.0,-1000.0
1732134924.426125,-737.79296875,-621.09375,-280.2734375,-383.7890625
1732134924.426125,-1000.0,921.38671875,-880.37109375,-961.42578125
1732134924.426125,-201.171875,-837.890625,848.14453125,-960.9375
1732134924.426125,-861.81640625,20.5078125,-750.0,-434.08203125
1732134924.426125,28.80859375,-1000.0,-723.14453125,-859.375
1732134924.426125,-1000.0,319.3359375,853.02734375,701.66015625
1732134924.426125,-233.88671875,-739.2578125,-841.796875,-792.48046875
1732134924.426125,-829.58984375,155.2734375,-70.3125,137.6953125
1732134924.426125,240.72265625,-1000.0,-1000.0,-1000.0
1732134924.426125,-1000.0,-138.671875,203.61328125,104.4921875
1732134924.426125,-669.43359375,-811.5234375,-760.7421875,-751.953125
1732134924.426125,993.1640625,570.3125,188.4765625,190.4296875
1732134924.426125,453.125,-1000.0,-1000.0,-1000.0
1732134924.426125,-1000.0,-291.50390625,-278.3203125,-278.3203125
1732134924.426125,-1000.0,-939.453125,-809.5703125,-827.1484375
1732134924.426125,-861.81640625,20.5078125,-750.0,-434.08203125
1732134924.426125,28.80859375,-1000.0,-723.14453125,-859.375
1732134924.426125,-1000.0,319.3359375,853.02734375,701.66015625
1732134924.426125,-233.88671875,-739.2578125,-841.796875,-792.48046875
1732134924.426125,-829.58984375,155.2734375,-70.3125,137.6953125
1732134924.426125,240.72265625,-1000.0,-1000.0,-1000.0
1732134924.426125,-1000.0,-138.671875,203.61328125,104.4921875
1732134924.426125,-669.43359375,-811.5234375,-760.7421875,-751.953125
1732134924.426125,993.1640625,570.3125,188.4765625,190.4296875
1732134924.426125,453.125,-1000.0,-1000.0,-1000.0
1732134924.426125,-1000.0,-291.50390625,-278.3203125,-278.3203125
1732134924.426125,-1000.0,-939.453125,-809.5703125,-827.1484375
1732134924.426125,163.0859375,-920.8984375,484.375,612.79296875
1732134924.426125,-999.51171875,-368.1640625,-1000.0,-1000.0
1732134924.426125,-481.93359375,-722.16796875,-385.25390625,-486.328125
1732134924.426125,-1000.0,855.46875,-941.89453125,979.4921875
1732134924.426125,-208.0078125,-819.82421875,972.65625,-891.11328125
1732134924.426125,-848.6328125,150.87890625,-537.59765625,-251.46484375
1732134924.426125,137.6953125,-1000.0,-895.01953125,-982.91015625
1732134924.426125,-1000.0,100.5859375,664.55078125,534.66796875
1732134924.426125,-346.19140625,-732.421875,-806.640625,-776.85546875
1732134924.426125,-854.00390625,231.4453125,59.5703125,167.48046875
1732134924.426125,237.3046875,-1000.0,-1000.0,-1000.0
1732134924.426125,-1000.0,-280.2734375,-16.6015625,-121.09375
1732134924.426125,163.0859375,-920.8984375,484.375,612.79296875
1732134924.426125,-999.51171875,-368.1640625,-1000.0,-1000.0
1732134924.426125,-481.93359375,-722.16796875,-385.25390625,-486.328125
1732134924.426125,-1000.0,855.46875,-941.89453125,979.4921875
1732134924.426125,-208.0078125,-819.82421875,972.65625,-891.11328125
1732134924.426125,-848.6328125,150.87890625,-537.59765625,-251.46484375
1732134924.426125,137.6953125,-1000.0,-895.01953125,-982.91015625
1732134924.426125,-1000.0,100.5859375,664.55078125,534.66796875
1732134924.426125,-346.19140625,-732.421875,-806.640625,-776.85546875
1732134924.426125,-854.00390625,231.4453125,59.5703125,167.48046875
1732134924.426125,237.3046875,-1000.0,-1000.0,-1000.0
1732134924.426125,-1000.0,-280.2734375,-16.6015625,-121.09375
1732134924.426125,163.0859375,-920.8984375,484.375,612.79296875
1732134924.426125,-999.51171875,-368.1640625,-1000.0,-1000.0
1732134924.426125,-481.93359375,-722.16796875,-385.25390625,-486.328125
1732134924.426125,-1000.0,855.46875,-941.89453125,979.4921875
1732134924.426125,-208.0078125,-819.82421875,972.65625,-891.11328125
1732134924.426125,-848.6328125,150.87890625,-537.59765625,-251.46484375
1732134924.426125,137.6953125,-1000.0,-895.01953125,-982.91015625
1732134924.426125,-1000.0,100.5859375,664.55078125,534.66796875
1732134924.426125,-346.19140625,-732.421875,-806.640625,-776.85546875
1732134924.426125,-854.00390625,231.4453125,59.5703125,167.48046875
1732134924.426125,237.3046875,-1000.0,-1000.0,-1000.0
1732134924.426125,-1000.0,-280.2734375,-16.6015625,-121.09375
1732134924.560125,-893.5546875,-842.28515625,-755.37109375,-759.765625
1732134924.560125,719.23828125,710.9375,198.2421875,304.19921875
1732134924.560125,583.984375,-941.40625,-1000.0,-1000.0
1732134924.560125,-963.37890625,-395.01953125,-277.83203125,-280.2734375
1732134924.560125,-1000.0,-976.07421875,-823.73046875,-864.2578125
1732134924.560125,20.99609375,-891.11328125,584.9609375,785.15625
1732134924.560125,-874.51171875,-233.88671875,-1000.0,-850.09765625
1732134924.560125,-226.07421875,-883.30078125,-495.1171875,-605.95703125
1732134924.560125,-1000.0,661.1328125,985.3515625,925.29296875
1732134924.560125,-218.75,-786.62109375,-917.96875,-856.93359375
1732134924.560125,-837.40234375,157.71484375,-312.01171875,-99.12109375
1732134924.560125,242.67578125,-1000.0,-1000.0,-1000.0
1732134924.560125,-893.5546875,-842.28515625,-755.37109375,-759.765625
1732134924.560125,719.23828125,710.9375,198.2421875,304.19921875
1732134924.560125,583.984375,-941.40625,-1000.0,-1000.0
1732134924.560125,-963.37890625,-395.01953125,-277.83203125,-280.2734375
1732134924.560125,-1000.0,-976.07421875,-823.73046875,-864.2578125
1732134924.560125,20.99609375,-891.11328125,584.9609375,785.15625
1732134924.560125,-874.51171875,-233.88671875,-1000.0,-850.09765625
1732134924.560125,-226.07421875,-883.30078125,-495.1171875,-605.95703125
1732134924.560125,-1000.0,661.1328125,985.3515625,925.29296875
1732134924.560125,-218.75,-786.62109375,-917.96875,-856.93359375
1732134924.560125,-837.40234375,157.71484375,-312.01171875,-99.12109375
1732134924.560125,242.67578125,-1000.0,-1000.0,-1000.0
1732134924.560125,-1000.0,-19.04296875,459.9609375,348.14453125
1732134924.560125,-457.03125,-744.62890625,-773.92578125,-756.8359375
1732134924.560125,-884.27734375,349.12109375,170.8984375,177.24609375
1732134924.560125,237.79296875,-1000.0,-1000.0,-1000.0
1732134924.560125,-1000.0,-285.64453125,-144.04296875,-241.69921875
1732134924.560125,-1000.0,-875.48828125,-765.625,-790.0390625
1732134924.560125,513.671875,854.4921875,256.34765625,416.50390625
1732134924.560125,687.98828125,-762.6953125,-1000.0,-1000.0
1732134924.560125,-899.90234375,-518.5546875,-276.85546875,-280.2734375
1732134924.560125,-1000.0,975.09765625,-852.05078125,-901.3671875
1732134924.560125,-93.75,-863.28125,720.703125,931.15234375
1732134924.560125,-856.4453125,-101.5625,-925.78125,-633.30078125
1732134924.560125,-1000.0,-19.04296875,459.9609375,348.14453125
1732134924.560125,-457.03125,-744.62890625,-773.92578125,-756.8359375
1732134924.560125,-884.27734375,349.12109375,170.8984375,177.24609375
1732134924.560125,237.79296875,-1000.0,-1000.0,-1000.0
1732134924.560125,-1000.0,-285.64453125,-144.04296875,-241.69921875
1732134924.560125,-1000.0,-875.48828125,-765.625,-790.0390625
1732134924.560125,513.671875,854.4921875,256.34765625,416.50390625
1732134924.560125,687.98828125,-762.6953125,-1000.0,-1000.0
1732134924.560125,-899.90234375,-518.5546875,-276.85546875,-280.2734375
1732134924.560125,-1000.0,975.09765625,-852.05078125,-901.3671875
1732134924.560125,-93.75,-863.28125,720.703125,931.15234375
1732134924.560125,-856.4453125,-101.5625,-925.78125,-633.30078125
1732134924.560125,-87.890625,-1000.0,-617.1875,-713.8671875
1732134924.560125,-1000.0,467.7734375,924.8046875,863.28125
1732134924.560125,-225.5859375,-762.20703125,-879.8828125,-833.984375
1732134924.560125,-835.44921875,166.50390625,-169.43359375,47.8515625
1732134924.560125,243.65234375,-1000.0,-1000.0,-1000.0
1732134924.560125,-1000.0,-132.32421875,251.46484375,127.44140625
1732134924.560125,-617.1875,-769.04296875,-756.8359375,-740.72265625
1732134924.560125,-966.30859375,462.890625,182.6171875,184.08203125
1732134924.560125,354.00390625,-1000.0,-1000.0,-1000.0
1732134924.560125,-1000.0,-288.57421875,-260.7421875,-279.296875
1732134924.560125,-1000.0,-910.64453125,-794.43359375,-812.5
1732134924.560125,289.0625,983.88671875,380.859375,521.97265625
1732134924.696125,897.4609375,-559.08203125,-1000.0,-1000.0
1732134924.696125,-649.4140625,-645.5078125,-280.76171875,-380.37109375
1732134924.696125,-1000.0,910.15625,-882.32421875,-969.23828125
1732134924.696125,-199.70703125,-837.40234375,855.95703125,-937.98828125
1732134924.696125,-860.83984375,30.2734375,-730.46875,-391.6015625
1732134924.696125,29.296875,-1000.0,-751.953125,-862.3046875
1732134924.696125,-1000.0,259.765625,825.68359375,703.125
1732134924.696125,-237.3046875,-743.65234375,-843.75,-800.29296875
1732134924.696125,-830.078125,177.24609375,-45.8984375,160.15625
1732134924.696125,235.3515625,-1000.0,-1000.0,-1000.0
1732134924.696125,-1000.0,-249.0234375,97.65625,-16.6015625
1732134924.696125,-766.11328125,-807.12890625,-750.9765625,-746.09375
1732134924.696125,887.20703125,579.1015625,189.94140625,193.84765625
1732134924.696125,473.14453125,-1000.0,-1000.0,-1000.0
1732134924.696125,-1000.0,-291.9921875,-278.80859375,-274.4140625
1732134924.696125,-1000.0,-938.96484375,-810.05859375,-839.84375
1732134924.696125,145.99609375,-922.8515625,493.1640625,666.9921875
1732134924.696125,-944.82421875,-360.3515625,-1000.0,-992.67578125
1732134924.696125,-397.4609375,-758.30078125,-393.5546875,-495.60546875
1732134924.696125,-1000.0,819.3359375,-948.73046875,979.00390625
1732134924.696125,-208.0078125,-813.4765625,985.83984375,-885.25390625
1732134924.696125,-846.19140625,151.3671875,-510.25390625,-221.19140625
1732134924.696125,137.6953125,-1000.0,-920.8984375,-995.60546875
1732134924.696125,-1000.0,81.0546875,632.32421875,510.25390625
1732134924.696125,887.20703125,579.1015625,189.94140625,193.84765625
1732134924.696125,473.14453125,-1000.0,-1000.0,-1000.0
1732134924.696125,-1000.0,-291.9921875,-278.80859375,-274.4140625
1732134924.696125,-1000.0,-938.96484375,-810.05859375,-839.84375
1732134924.696125,145.99609375,-922.8515625,493.1640625,666.9921875
1732134924.696125,-944.82421875,-360.3515625,-1000.0,-992.67578125
1732134924.696125,-397.4609375,-758.30078125,-393.5546875,-495.60546875
1732134924.696125,-1000.0,819.3359375,-948.73046875,979.00390625
1732134924.696125,-208.0078125,-813.4765625,985.83984375,-885.25390625
1732134924.696125,-846.19140625,151.3671875,-510.25390625,-221.19140625
1732134924.696125,137.6953125,-1000.0,-920.8984375,-995.60546875
1732134924.696125,-1000.0,81.0546875,632.32421875,510.25390625
1732134924.786125,-346.19140625,-733.88671875,-801.26953125,-774.4140625
1732134924.786125,-854.00390625,243.1640625,73.2421875,169.921875
1732134924.786125,235.83984375,-1000.0,-1000.0,-1000.0
1732134924.786125,-1000.0,-280.76171875,-31.73828125,-145.5078125
1732134924.786125,-911.1328125,-845.21484375,-756.34765625,-764.6484375
1732134924.786125,696.2890625,724.609375,198.73046875,307.6171875
1732134924.786125,587.40234375,-926.7578125,-1000.0,-1000.0
1732134924.786125,-964.35546875,-407.2265625,-277.83203125,-277.34375
1732134924.786125,-1000.0,-978.02734375,-825.68359375,-871.09375
1732134924.786125,16.6015625,-891.6015625,592.28515625,810.546875
1732134924.786125,-861.81640625,-226.5625,-1000.0,-817.87109375
1732134924.786125,-202.1484375,-911.62109375,-513.671875,-609.86328125
1732134924.786125,-346.19140625,-733.88671875,-801.26953125,-774.4140625
1732134924.786125,-854.00390625,243.1640625,73.2421875,169.921875
1732134924.786125,235.83984375,-1000.0,-1000.0,-1000.0
1732134924.786125,-1000.0,-280.76171875,-31.73828125,-145.5078125
1732134924.786125,-911.1328125,-845.21484375,-756.34765625,-764.6484375
1732134924.786125,696.2890625,724.609375,198.73046875,307.6171875
1732134924.786125,587.40234375,-926.7578125,-1000.0,-1000.0
1732134924.786125,-964.35546875,-407.2265625,-277.83203125,-277.34375
1732134924.786125,-1000.0,-978.02734375,-825.68359375,-871.09375
1732134924.786125,16.6015625,-891.6015625,592.28515625,810.546875
1732134924.786125,-861.81640625,-226.5625,-1000.0,-817.87109375
1732134924.786125,-202.1484375,-911.62109375,-513.671875,-609.86328125
1732134924.786125,-346.19140625,-733.88671875,-801.26953125,-774.4140625
1732134924.786125,-854.00390625,243.1640625,73.2421875,169.921875
1732134924.786125,235.83984375,-1000.0,-1000.0,-1000.0
1732134924.786125,-1000.0,-280.76171875,-31.73828125,-145.5078125
1732134924.786125,-911.1328125,-845.21484375,-756.34765625,-764.6484375
1732134924.786125,696.2890625,724.609375,198.73046875,307.6171875
1732134924.786125,587.40234375,-926.7578125,-1000.0,-1000.0
1732134924.786125,-964.35546875,-407.2265625,-277.83203125,-277.34375
1732134924.786125,-1000.0,-978.02734375,-825.68359375,-871.09375
1732134924.786125,16.6015625,-891.6015625,592.28515625,810.546875
1732134924.786125,-861.81640625,-226.5625,-1000.0,-817.87109375
1732134924.786125,-202.1484375,-911.62109375,-513.671875,-609.86328125
1732134924.786125,-1000.0,624.51171875,975.09765625,925.78125
1732134924.786125,-219.23828125,-783.203125,-911.1328125,-860.3515625
1732134924.786125,-838.37890625,160.15625,-295.8984375,-70.3125
1732134924.786125,247.55859375,-1000.0,-1000.0,-1000.0
1732134924.786125,-1000.0,-45.41015625,425.78125,265.625
1732134924.786125,-469.7265625,-748.53515625,-770.5078125,-751.953125
1732134924.786125,984.86328125,357.91015625,172.36328125,180.6640625
1732134924.786125,66.40625,-1000.0,-1000.0,-1000.0
1732134924.786125,-1000.0,-285.15625,-159.1796875,-264.6484375
1732134924.786125,-1000.0,-879.39453125,-768.5546875,-796.38671875
1732134924.786125,493.65234375,866.2109375,265.13671875,419.921875
1732134924.786125,748.046875,-746.09375,-1000.0,-1000.0
1732134924.786125,-1000.0,624.51171875,975.09765625,925.78125
1732134924.786125,-219.23828125,-783.203125,-911.1328125,-860.3515625
1732134924.786125,-838.37890625,160.15625,-295.8984375,-70.3125
1732134924.786125,247.55859375,-1000.0,-1000.0,-1000.0
1732134924.786125,-1000.0,-45.41015625,425.78125,265.625
1732134924.786125,-469.7265625,-748.53515625,-770.5078125,-751.953125
1732134924.786125,984.86328125,357.91015625,172.36328125,180.6640625
1732134924.786125,66.40625,-1000.0,-1000.0,-1000.0
1732134924.786125,-1000.0,-285.15625,-159.1796875,-264.6484375
1732134924.786125,-1000.0,-879.39453125,-768.5546875,-796.38671875
1732134924.786125,493.65234375,866.2109375,265.13671875,419.921875
1732134924.786125,748.046875,-746.09375,-1000.0,-1000.0
1732134924.786125,-1000.0,624.51171875,975.09765625,925.78125
1732134924.786125,-219.23828125,-783.203125,-911.1328125,-860.3515625
1732134924.786125,-838.37890625,160.15625,-295.8984375,-70.3125
1732134924.786125,247.55859375,-1000.0,-1000.0,-1000.0
1732134924.786125,-1000.0,-45.41015625,425.78125,265.625
1732134924.786125,-469.7265625,-748.53515625,-770.5078125,-751.953125
1732134924.786125,984.86328125,357.91015625,172.36328125,180.6640625
1732134924.786125,66.40625,-1000.0,-1000.0,-1000.0
1732134924.786125,-1000.0,-285.15625,-159.1796875,-264.6484375
1732134924.786125,-1000.0,-879.39453125,-768.5546875,-796.38671875
1732134924.786125,493.65234375,866.2109375,265.13671875,419.921875
1732134924.786125,748.046875,-746.09375,-1000.0,-1000.0
1732134924.786125,-834.47265625,-549.8046875,-277.34375,-277.83203125
1732134924.786125,-1000.0,961.42578125,-853.02734375,-905.76171875
1732134924.786125,-90.8203125,-860.3515625,724.12109375,945.80078125
1732134924.786125,-855.46875,-96.6796875,-918.45703125,-609.86328125
1732134924.786125,-87.890625,-1000.0,-639.6484375,-717.28515625
1732134924.786125,-1000.0,432.12890625,911.62109375,863.76953125
1732134924.786125,-226.07421875,-759.765625,-876.953125,-836.42578125
1732134924.786125,-836.42578125,169.43359375,-166.50390625,53.22265625
1732134924.786125,243.1640625,-1000.0,-1000.0,-1000.0
1732134924.786125,-1000.0,-158.203125,227.5390625,86.9140625
1732134924.786125,-644.04296875,-774.4140625,-756.34765625,-743.65234375
1732134924.786125,-983.3984375,470.703125,184.08203125,187.98828125
1732134924.786125,-834.47265625,-549.8046875,-277.34375,-277.83203125
1732134924.786125,-1000.0,961.42578125,-853.02734375,-905.76171875
1732134924.786125,-90.8203125,-860.3515625,724.12109375,945.80078125
1732134924.786125,-855.46875,-96.6796875,-918.45703125,-609.86328125
1732134924.786125,-87.890625,-1000.0,-639.6484375,-717.28515625
1732134924.786125,-1000.0,432.12890625,911.62109375,863.76953125
1732134924.786125,-226.07421875,-759.765625,-876.953125,-836.42578125
1732134924.786125,-836.42578125,169.43359375,-166.50390625,53.22265625
1732134924.786125,243.1640625,-1000.0,-1000.0,-1000.0
1732134924.786125,-1000.0,-158.203125,227.5390625,86.9140625
1732134924.786125,-644.04296875,-774.4140625,-756.34765625,-743.65234375
1732134924.786125,-983.3984375,470.703125,184.08203125,187.98828125
1732134924.936125,359.86328125,-1000.0,-1000.0,-1000.0
1732134924.936125,-1000.0,-288.57421875,-276.3671875,-279.296875
1732134924.936125,-1000.0,-911.1328125,-799.31640625,-814.453125
1732134924.936125,273.4375,983.88671875,386.71875,540.52734375
1732134924.936125,954.58984375,-556.640625,-1000.0,-1000.0
1732134924.936125,-574.70703125,-661.1328125,-297.36328125,-382.8125
1732134924.936125,-1000.0,899.4140625,-889.6484375,-970.703125
1732134924.936125,-198.2421875,-835.9375,863.28125,-930.6640625
1732134924.936125,-859.86328125,45.8984375,-718.26171875,-368.1640625
1732134924.936125,29.78515625,-1000.0,-777.34375,-882.32421875
1732134924.936125,-1000.0,225.5859375,798.33984375,678.22265625
1732134924.936125,-244.62890625,-741.69921875,-839.35546875,-797.36328125
1732134924.936125,359.86328125,-1000.0,-1000.0,-1000.0
1732134924.936125,-1000.0,-288.57421875,-276.3671875,-279.296875
1732134924.936125,-1000.0,-911.1328125,-799.31640625,-814.453125
1732134924.936125,273.4375,983.88671875,386.71875,540.52734375
1732134924.936125,954.58984375,-556.640625,-1000.0,-1000.0
1732134924.936125,-574.70703125,-661.1328125,-297.36328125,-382.8125
1732134924.936125,-1000.0,899.4140625,-889.6484375,-970.703125
1732134924.936125,-198.2421875,-835.9375,863.28125,-930.6640625
1732134924.936125,-859.86328125,45.8984375,-718.26171875,-368.1640625
1732134924.936125,29.78515625,-1000.0,-777.34375,-882.32421875
1732134924.936125,-1000.0,225.5859375,798.33984375,678.22265625
1732134924.936125,-244.62890625,-741.69921875,-839.35546875,-797.36328125
1732134924.936125,-832.51953125,178.7109375,-41.50390625,162.59765625
1732134924.936125,234.86328125,-1000.0,-1000.0,-1000.0
1732134924.936125,-1000.0,-263.18359375,82.03125,-41.9921875
1732134924.936125,-787.109375,-812.01171875,-751.953125,-749.0234375
1732134924.936125,862.79296875,584.9609375,190.91796875,196.2890625
1732134924.936125,503.41796875,-1000.0,-1000.0,-1000.0
1732134924.936125,-1000.0,-304.19921875,-278.3203125,-273.4375
1732134924.936125,-1000.0,-942.87109375,-811.5234375,-842.7734375
1732134924.936125,147.4609375,-923.33984375,500.0,679.19921875
1732134924.936125,-943.84765625,-352.5390625,-1000.0,-979.00390625
1732134924.936125,-394.53125,-796.38671875,-413.0859375,-498.046875
1732134924.936125,-1000.0,778.3203125,-956.0546875,979.4921875
1732134924.936125,-832.51953125,178.7109375,-41.50390625,162.59765625
1732134924.936125,234.86328125,-1000.0,-1000.0,-1000.0
1732134924.936125,-1000.0,-263.18359375,82.03125,-41.9921875
1732134924.936125,-787.109375,-812.01171875,-751.953125,-749.0234375
1732134924.936125,862.79296875,584.9609375,190.91796875,196.2890625
1732134924.936125,503.41796875,-1000.0,-1000.0,-1000.0
1732134924.936125,-1000.0,-304.19921875,-278.3203125,-273.4375
1732134924.936125,-1000.0,-942.87109375,-811.5234375,-842.7734375
1732134924.936125,147.4609375,-923.33984375,500.0,679.19921875
1732134924.936125,-943.84765625,-352.5390625,-1000.0,-979.00390625
1732134924.936125,-394.53125,-796.38671875,-413.0859375,-498.046875
1732134924.936125,-1000.0,778.3203125,-956.0546875,979.4921875
1732134924.936125,-832.51953125,178.7109375,-41.50390625,162.59765625
1732134924.936125,234.86328125,-1000.0,-1000.0,-1000.0
1732134924.936125,-1000.0,-263.18359375,82.03125,-41.9921875
1732134924.936125,-787.109375,-812.01171875,-751.953125,-749.0234375
1732134924.936125,862.79296875,584.9609375,190.91796875,196.2890625
1732134924.936125,503.41796875,-1000.0,-1000.0,-1000.0
1732134924.936125,-1000.0,-304.19921875,-278.3203125,-273.4375
1732134924.936125,-1000.0,-942.87109375,-811.5234375,-842.7734375
1732134924.936125,147.4609375,-923.33984375,500.0,679.19921875
1732134924.936125,-943.84765625,-352.5390625,-1000.0,-979.00390625
1732134924.936125,-394.53125,-796.38671875,-413.0859375,-498.046875
1732134924.936125,-1000.0,778.3203125,-956.0546875,979.4921875
1732134924.936125,-208.0078125,-807.12890625,988.28125,-888.18359375
1732134924.936125,-848.6328125,152.83203125,-504.39453125,-202.1484375
1732134924.936125,139.6484375,-1000.0,-940.91796875,-1000.0
1732134924.936125,-1000.0,59.5703125,604.98046875,447.265625
1732134924.936125,-397.4609375,-735.3515625,-797.36328125,-769.04296875
1732134924.936125,-875.9765625,241.69921875,80.56640625,172.8515625
1732134924.936125,245.1171875,-1000.0,-1000.0,-1000.0
1732134924.936125,-1000.0,-279.78515625,-42.48046875,-172.8515625
1732134924.936125,-909.66796875,-848.14453125,-757.32421875,-769.53125
1732134924.936125,687.98828125,732.421875,199.70703125,313.96484375
1732134924.936125,652.34375,-918.9453125,-1000.0,-1000.0
1732134924.936125,-922.8515625,-434.5703125,-277.83203125,-274.90234375
1732134925.070125,-1000.0,-988.28125,-827.63671875,-878.90625
1732134925.070125,21.484375,-889.16015625,602.5390625,840.33203125
1732134925.070125,-862.79296875,-223.6328125,-1000.0,-778.3203125
1732134925.070125,-202.1484375,-929.6875,-533.203125,-618.1640625
1732134925.070125,-1000.0,600.09765625,967.28515625,925.78125
1732134925.070125,-219.23828125,-780.2734375,-908.69140625,-861.81640625
1732134925.070125,-839.84375,161.1328125,-295.41015625,-64.453125
1732134925.070125,244.62890625,-1000.0,-1000.0,-1000.0
1732134925.070125,-1000.0,-55.17578125,416.50390625,233.3984375
1732134925.070125,-549.8046875,-750.0,-770.01953125,-750.48828125
1732134925.070125,-933.10546875,371.09375,173.33984375,182.6171875
1732134925.070125,255.859375,-1000.0,-1000.0,-1000.0
1732134925.070125,-1000.0,-286.62109375,-170.8984375,-278.80859375
1732134925.070125,-1000.0,-880.37109375,-770.5078125,-802.24609375
1732134925.070125,481.4453125,873.046875,278.3203125,454.1015625
1732134925.070125,826.66015625,-736.328125,-1000.0,-1000.0
1732134925.070125,-748.53515625,-563.4765625,-277.34375,-280.76171875
1732134925.070125,-1000.0,953.125,-857.421875,-911.1328125
1732134925.070125,-87.40234375,-855.95703125,747.55859375,968.75
1732134925.070125,-854.98046875,-76.66015625,-892.08984375,-565.91796875
1732134925.070125,-87.890625,-1000.0,-649.90234375,-743.1640625
1732134925.070125,-1000.0,412.59765625,905.76171875,839.84375
1732134925.070125,-226.07421875,-756.8359375,-872.55859375,-831.54296875
1732134925.070125,-835.9375,169.43359375,-144.53125,54.19921875
1732134925.070125,-1000.0,-286.62109375,-170.8984375,-278.80859375
1732134925.070125,-1000.0,-880.37109375,-770.5078125,-802.24609375
1732134925.070125,481.4453125,873.046875,278.3203125,454.1015625
1732134925.070125,826.66015625,-736.328125,-1000.0,-1000.0
1732134925.070125,-748.53515625,-563.4765625,-277.34375,-280.76171875
1732134925.070125,-1000.0,953.125,-857.421875,-911.1328125
1732134925.070125,-87.40234375,-855.95703125,747.55859375,968.75
1732134925.070125,-854.98046875,-76.66015625,-892.08984375,-565.91796875
1732134925.070125,-87.890625,-1000.0,-649.90234375,-743.1640625
1732134925.070125,-1000.0,412.59765625,905.76171875,839.84375
1732134925.070125,-226.07421875,-756.8359375,-872.55859375,-831.54296875
1732134925.070125,-835.9375,169.43359375,-144.53125,54.19921875
1732134925.070125,-1000.0,-286.62109375,-170.8984375,-278.80859375
1732134925.070125,-1000.0,-880.37109375,-770.5078125,-802.24609375
1732134925.070125,481.4453125,873.046875,278.3203125,454.1015625
1732134925.070125,826.66015625,-736.328125,-1000.0,-1000.0
1732134925.070125,-748.53515625,-563.4765625,-277.34375,-280.76171875
1732134925.070125,-1000.0,953.125,-857.421875,-911.1328125
1732134925.070125,-87.40234375,-855.95703125,747.55859375,968.75
1732134925.070125,-854.98046875,-76.66015625,-892.08984375,-565.91796875
1732134925.070125,-87.890625,-1000.0,-649.90234375,-743.1640625
1732134925.070125,-1000.0,412.59765625,905.76171875,839.84375
1732134925.070125,-226.07421875,-756.8359375,-872.55859375,-831.54296875
1732134925.070125,-835.9375,169.43359375,-144.53125,54.19921875
1732134925.160125,243.65234375,-1000.0,-1000.0,-1000.0
1732134925.160125,-1000.0,-163.0859375,208.984375,74.70703125
1732134925.160125,-645.01953125,-775.87890625,-753.90625,-744.62890625
1732134925.160125,-984.375,481.93359375,184.5703125,188.4765625
1732134925.160125,384.27734375,-1000.0,-1000.0,-1000.0
1732134925.160125,-1000.0,-290.52734375,-276.85546875,-278.80859375
1732134925.160125,-1000.0,-910.64453125,-800.78125,-818.84765625
1732134925.160125,275.390625,983.88671875,405.2734375,577.1484375
1732134925.160125,954.1015625,-554.6875,-1000.0,-1000.0
1732134925.160125,-574.70703125,-676.26953125,-314.453125,-388.18359375
1732134925.160125,-1000.0,888.671875,-895.5078125,-973.14453125
1732134925.160125,-197.75390625,-833.49609375,873.53515625,-918.45703125
1732134925.160125,243.65234375,-1000.0,-1000.0,-1000.0
1732134925.160125,-1000.0,-163.0859375,208.984375,74.70703125
1732134925.160125,-645.01953125,-775.87890625,-753.90625,-744.62890625
1732134925.160125,-984.375,481.93359375,184.5703125,188.4765625
1732134925.160125,384.27734375,-1000.0,-1000.0,-1000.0
1732134925.160125,-1000.0,-290.52734375,-276.85546875,-278.80859375
1732134925.160125,-1000.0,-910.64453125,-800.78125,-818.84765625
1732134925.160125,275.390625,983.88671875,405.2734375,577.1484375
1732134925.160125,954.1015625,-554.6875,-1000.0,-1000.0
1732134925.160125,-574.70703125,-676.26953125,-314.453125,-388.18359375
1732134925.160125,-1000.0,888.671875,-895.5078125,-973.14453125
1732134925.160125,-197.75390625,-833.49609375,873.53515625,-918.45703125
1732134925.160125,-864.74609375,62.01171875,-702.63671875,-328.125
1732134925.160125,35.15625,-1000.0,-797.8515625,-919.921875
1732134925.160125,-1000.0,202.1484375,774.4140625,631.8359375
1732134925.160125,-333.49609375,-739.74609375,-832.03125,-791.015625
1732134925.160125,-862.79296875,179.6875,-17.578125,163.57421875
1732134925.160125,249.51171875,-1000.0,-1000.0,-1000.0
1732134925.160125,-1000.0,-271.97265625,71.77734375,-59.5703125
1732134925.160125,-785.64453125,-816.89453125,-750.48828125,-750.48828125
1732134925.160125,858.88671875,599.609375,190.91796875,219.7265625
1732134925.160125,547.36328125,-1000.0,-1000.0,-1000.0
1732134925.160125,-981.93359375,-325.1953125,-278.80859375,-273.4375
1732134925.160125,-1000.0,-948.2421875,-813.4765625,-852.05078125
1732134925.160125,-864.74609375,62.01171875,-702.63671875,-328.125
1732134925.160125,35.15625,-1000.0,-797.8515625,-919.921875
1732134925.160125,-1000.0,202.1484375,774.4140625,631.8359375
1732134925.160125,-333.49609375,-739.74609375,-832.03125,-791.015625
1732134925.160125,-862.79296875,179.6875,-17.578125,163.57421875
1732134925.160125,249.51171875,-1000.0,-1000.0,-1000.0
1732134925.160125,-1000.0,-271.97265625,71.77734375,-59.5703125
1732134925.160125,-785.64453125,-816.89453125,-750.48828125,-750.48828125
1732134925.160125,858.88671875,599.609375,190.91796875,219.7265625
1732134925.160125,547.36328125,-1000.0,-1000.0,-1000.0
1732134925.160125,-981.93359375,-325.1953125,-278.80859375,-273.4375
1732134925.160125,-1000.0,-948.2421875,-813.4765625,-852.05078125
1732134925.160125,-864.74609375,62.01171875,-702.63671875,-328.125
1732134925.160125,35.15625,-1000.0,-797.8515625,-919.921875
1732134925.160125,-1000.0,202.1484375,774.4140625,631.8359375
1732134925.160125,-333.49609375,-739.74609375,-832.03125,-791.015625
1732134925.160125,-862.79296875,179.6875,-17.578125,163.57421875
1732134925.160125,249.51171875,-1000.0,-1000.0,-1000.0
1732134925.160125,-1000.0,-271.97265625,71.77734375,-59.5703125
1732134925.160125,-785.64453125,-816.89453125,-750.48828125,-750.48828125
1732134925.160125,858.88671875,599.609375,190.91796875,219.7265625
1732134925.160125,547.36328125,-1000.0,-1000.0,-1000.0
1732134925.160125,-981.93359375,-325.1953125,-278.80859375,-273.4375
1732134925.160125,-1000.0,-948.2421875,-813.4765625,-852.05078125
1732134925.160125,150.87890625,-921.38671875,516.6015625,727.5390625
1732134925.160125,-944.82421875,-351.5625,-1000.0,-925.78125
1732134925.160125,-394.04296875,-807.12890625,-432.12890625,-507.8125
1732134925.160125,-1000.0,766.11328125,-963.8671875,981.4453125
1732134925.160125,-208.0078125,-805.17578125,995.60546875,-888.18359375
1732134925.160125,-850.5859375,152.83203125,-492.67578125,-193.84765625
1732134925.160125,141.6015625,-1000.0,-949.21875,-1000.0
1732134925.160125,-1000.0,54.19921875,590.33203125,424.8046875
1732134925.160125,-442.3828125,-735.3515625,-794.43359375,-766.11328125
1732134925.160125,-895.5078125,267.578125,105.46875,172.8515625
1732134925.160125,253.41796875,-1000.0,-1000.0,-1000.0
1732134925.160125,-1000.0,-282.71484375,-55.6640625,-174.8046875
1732134925.160125,150.87890625,-921.38671875,516.6015625,727.5390625
1732134925.160125,-944.82421875,-351.5625,-1000.0,-925.78125
1732134925.160125,-394.04296875,-807.12890625,-432.12890625,-507.8125
1732134925.160125,-1000.0,766.11328125,-963.8671875,981.4453125
1732134925.160125,-208.0078125,-805.17578125,995.60546875,-888.18359375
1732134925.160125,-850.5859375,152.83203125,-492.67578125,-193.84765625
1732134925.160125,141.6015625,-1000.0,-949.21875,-1000.0
1732134925.160125,-1000.0,54.19921875,590.33203125,424.8046875
1732134925.160125,-442.3828125,-735.3515625,-794.43359375,-766.11328125
1732134925.160125,-895.5078125,267.578125,105.46875,172.8515625
1732134925.160125,253.41796875,-1000.0,-1000.0,-1000.0
1732134925.160125,-1000.0,-282.71484375,-55.6640625,-174.8046875
1732134925.310125,-908.69140625,-850.09765625,-756.34765625,-771.484375
1732134925.310125,685.05859375,747.55859375,200.1953125,361.328125
1732134925.310125,675.29296875,-902.34375,-1000.0,-1000.0
1732134925.310125,-908.203125,-455.56640625,-277.34375,-280.2734375
1732134925.310125,-1000.0,-998.046875,-829.1015625,-885.7421875
1732134925.310125,23.4375,-883.30078125,614.2578125,874.51171875
1732134925.310125,-863.28125,-205.078125,-1000.0,-729.00390625
1732134925.310125,-202.1484375,-938.96484375,-541.9921875,-643.5546875
1732134925.310125,-1000.0,582.51953125,960.44921875,915.52734375
1732134925.310125,-219.7265625,-777.34375,-901.85546875,-859.375
1732134925.310125,-839.84375,161.1328125,-266.11328125,-60.05859375
1732134925.310125,244.62890625,-1000.0,-1000.0,-1000.0
1732134925.310125,-908.69140625,-850.09765625,-756.34765625,-771.484375
1732134925.310125,685.05859375,747.55859375,200.1953125,361.328125
1732134925.310125,675.29296875,-902.34375,-1000.0,-1000.0
1732134925.310125,-908.203125,-455.56640625,-277.34375,-280.2734375
1732134925.310125,-1000.0,-998.046875,-829.1015625,-885.7421875
1732134925.310125,23.4375,-883.30078125,614.2578125,874.51171875
1732134925.310125,-863.28125,-205.078125,-1000.0,-729.00390625
1732134925.310125,-202.1484375,-938.96484375,-541.9921875,-643.5546875
1732134925.310125,-1000.0,582.51953125,960.44921875,915.52734375
1732134925.310125,-219.7265625,-777.34375,-901.85546875,-859.375
1732134925.310125,-839.84375,161.1328125,-266.11328125,-60.05859375
1732134925.310125,244.62890625,-1000.0,-1000.0,-1000.0
1732134925.310125,-1000.0,-59.5703125,392.08984375,203.125
1732134925.310125,-553.7109375,-750.9765625,-766.11328125,-748.53515625
1732134925.310125,-931.640625,380.37109375,173.33984375,183.59375
1732134925.310125,314.94140625,-1000.0,-1000.0,-1000.0
1732134925.310125,-1000.0,-288.57421875,-171.875,-279.296875
1732134925.310125,-1000.0,-880.37109375,-770.01953125,-805.17578125
1732134925.310125,486.328125,873.046875,294.921875,491.69921875
1732134925.310125,825.1953125,-735.3515625,-1000.0,-1000.0
1732134925.310125,-748.53515625,-576.66015625,-279.78515625,-286.62109375
1732134925.310125,-1000.0,944.82421875,-857.421875,-912.109375
1732134925.310125,-87.40234375,-854.00390625,751.46484375,979.98046875
1732134925.310125,-854.98046875,-59.5703125,-886.23046875,-534.66796875
1732134925.310125,-1000.0,-59.5703125,392.08984375,203.125
1732134925.310125,-553.7109375,-750.9765625,-766.11328125,-748.53515625
1732134925.310125,-931.640625,380.37109375,173.33984375,183.59375
1732134925.310125,314.94140625,-1000.0,-1000.0,-1000.0
1732134925.310125,-1000.0,-288.57421875,-171.875,-279.296875
1732134925.310125,-1000.0,-880.37109375,-770.01953125,-805.17578125
1732134925.310125,486.328125,873.046875,294.921875,491.69921875
1732134925.310125,825.1953125,-735.3515625,-1000.0,-1000.0
1732134925.310125,-748.53515625,-576.66015625,-279.78515625,-286.62109375
1732134925.310125,-1000.0,944.82421875,-857.421875,-912.109375
1732134925.310125,-87.40234375,-854.00390625,751.46484375,979.98046875
1732134925.310125,-854.98046875,-59.5703125,-886.23046875,-534.66796875
1732134925.310125,-87.890625,-1000.0,-661.62109375,-784.1796875
1732134925.310125,-1000.0,381.8359375,896.484375,798.33984375
1732134925.310125,-225.5859375,-753.41796875,-868.1640625,-824.21875
1732134925.310125,-835.9375,170.41015625,-124.0234375,54.19921875
1732134925.310125,243.65234375,-1000.0,-1000.0,-1000.0
1732134925.310125,-1000.0,-170.8984375,188.4765625,61.5234375
1732134925.310125,-646.97265625,-778.3203125,-751.46484375,-745.60546875
1732134925.310125,-985.83984375,499.0234375,184.5703125,189.94140625
1732134925.310125,436.03515625,-1000.0,-1000.0,-1000.0
1732134925.310125,-1000.0,-293.9453125,-277.34375,-278.80859375
1732134925.310125,-1000.0,-909.1796875,-801.7578125,-822.265625
1732134925.310125,279.78515625,983.3984375,415.52734375,602.05078125
1732134925.310125,-87.890625,-1000.0,-661.62109375,-784.1796875
1732134925.310125,-1000.0,381.8359375,896.484375,798.33984375
1732134925.310125,-225.5859375,-753.41796875,-868.1640625,-824.21875
1732134925.310125,-835.9375,170.41015625,-124.0234375,54.19921875
1732134925.310125,243.65234375,-1000.0,-1000.0,-1000.0
1732134925.310125,-1000.0,-170.8984375,188.4765625,61.5234375
1732134925.310125,-646.97265625,-778.3203125,-751.46484375,-745.60546875
1732134925.310125,-985.83984375,499.0234375,184.5703125,189.94140625
1732134925.310125,436.03515625,-1000.0,-1000.0,-1000.0
1732134925.310125,-1000.0,-293.9453125,-277.34375,-278.80859375
1732134925.310125,-1000.0,-909.1796875,-801.7578125,-822.265625
1732134925.310125,279.78515625,983.3984375,415.52734375,602.05078125
1732134925.445125,952.63671875,-553.22265625,-1000.0,-1000.0
1732134925.445125,-574.70703125,-686.5234375,-328.61328125,-395.5078125
1732134925.445125,-1000.0,879.8828125,-905.2734375,-971.6796875
1732134925.445125,-197.75390625,-831.0546875,892.578125,-921.38671875
1732134925.445125,-864.74609375,85.44921875,-671.38671875,-320.80078125
1732134925.445125,35.15625,-1000.0,-817.87109375,-947.75390625
1732134925.445125,-1000.0,174.8046875,752.44140625,595.21484375
1732134925.445125,-333.49609375,-737.3046875,-825.68359375,-785.64453125
1732134925.445125,-862.79296875,180.17578125,0.9765625,163.57421875
1732134925.445125,249.51171875,-1000.0,-1000.0,-1000.0
1732134925.445125,-1000.0,-279.296875,59.5703125,-67.87109375
1732134925.445125,-786.1328125,-820.3125,-750.0,-750.9765625
1732134925.445125,857.421875,605.95703125,191.40625,259.765625
1732134925.445125,570.3125,-1000.0,-1000.0,-1000.0
1732134925.445125,-970.21484375,-346.19140625,-278.80859375,-278.3203125
1732134925.445125,-1000.0,-956.54296875,-814.453125,-855.46875
1732134925.445125,152.83203125,-916.9921875,523.4375,750.48828125
1732134925.445125,-945.3125,-335.44921875,-1000.0,-898.4375
1732134925.445125,-394.53125,-834.47265625,-440.4296875,-535.64453125
1732134925.445125,-1000.0,733.88671875,-978.02734375,971.19140625
1732134925.445125,-208.0078125,-799.8046875,-976.07421875,-886.23046875
1732134925.445125,-850.5859375,153.3203125,-437.5,-189.453125
1732134925.445125,141.6015625,-1000.0,-965.33203125,-1000.0
1732134925.445125,-1000.0,40.52734375,569.3359375,393.5546875
1732134925.445125,857.421875,605.95703125,191.40625,259.765625
1732134925.445125,570.3125,-1000.0,-1000.0,-1000.0
1732134925.445125,-970.21484375,-346.19140625,-278.80859375,-278.3203125
1732134925.445125,-1000.0,-956.54296875,-814.453125,-855.46875
1732134925.445125,152.83203125,-916.9921875,523.4375,750.48828125
1732134925.445125,-945.3125,-335.44921875,-1000.0,-898.4375
1732134925.445125,-394.53125,-834.47265625,-440.4296875,-535.64453125
1732134925.445125,-1000.0,733.88671875,-978.02734375,971.19140625
